time (s)	coil I (A)	last det (V)	int current (uC)
6938.086365	1.080029	0.318545	475.212921
6938.087476	1.519856	0.318545	2163.772705
6938.088434	1.496433	0.318545	3597.355713
6938.089298	1.459687	0.318545	4858.525391
6938.090341	1.417672	0.318545	6337.157227
6938.091375	1.377583	0.318545	7761.578125
6938.092261	1.344331	0.318545	8952.655273
6938.093241	0.652434	0.318545	9592.041016
6938.094290	0.087638	0.318545	9683.973633
6938.095214	0.086016	0.318545	9763.452148
6938.096069	0.086052	0.318545	9837.026367
6938.097104	0.086056	0.318545	9926.093750
6938.098108	0.086023	0.318545	10012.460937
6938.098999	0.085865	0.318545	10088.966797
6938.099957	0.086082	0.318545	10171.432617
6938.101015	0.086052	0.318545	10262.475586
6938.101934	0.085895	0.318545	10341.413086
6938.102802	0.085972	0.318545	10416.036133
6939.111396	1.077389	0.333228	495.598938
6939.112277	1.514733	0.333228	1830.078369
6939.113266	1.503988	0.333228	3317.522461
6939.114318	1.460002	0.333228	4853.445312
6939.115235	1.422451	0.333228	6157.833008
6939.116104	1.386958	0.333228	7363.099609
6939.117193	1.347378	0.333228	8830.394531
6939.118200	0.669694	0.333228	9504.776367
6939.119073	0.091670	0.333228	9584.804687
6939.120084	0.086034	0.333228	9671.785156
6939.121128	0.085972	0.333228	9761.540039
6939.122007	0.086030	0.333228	9837.161133
6939.122864	0.085964	0.333228	9910.833008
6939.123961	0.086060	0.333228	10005.240234
6939.124922	0.085997	0.333228	10087.883789
6939.125777	0.085917	0.333228	10161.342773
6939.126836	0.085990	0.333228	10252.406250
6939.127869	0.085920	0.333228	10341.162109
6940.144613	1.074001	0.346312	496.188660
6940.145488	1.514663	0.346312	1821.518799
6940.146458	1.504651	0.346312	3281.030273
6940.147524	1.460134	0.346312	4837.533203
6940.148449	1.422488	0.346312	6153.334473
6940.149317	1.387401	0.346312	7357.598633
6940.150411	1.347231	0.346312	8831.469727
6940.151416	0.664797	0.346312	9499.590820
6940.152310	0.090685	0.346312	9580.663086
6940.153297	0.086052	0.346312	9665.596680
6940.154354	0.086155	0.346312	9756.662109
6940.155245	0.085920	0.346312	9833.216797
6940.156109	0.086019	0.346312	9907.537109
6940.157213	0.086041	0.346312	10002.526367
6940.158176	0.086023	0.346312	10085.366211
6940.159042	0.086001	0.346312	10159.842773
6940.160079	0.086125	0.346312	10249.155273
6940.161113	0.086023	0.346312	10338.102539
6941.172666	1.044756	0.346086	438.797455
6941.173795	1.519036	0.346086	2153.788818
6941.174759	1.496638	0.346086	3596.547852
6941.175627	1.459728	0.346086	4863.591797
6941.176665	1.418049	0.346086	6335.526855
6941.177703	1.377920	0.346086	7765.807617
6941.178585	1.344496	0.346086	8951.652344
6941.179517	0.689901	0.346086	9594.640625
6941.180379	0.091805	0.346086	9673.777344
6941.181330	0.085865	0.346086	9755.435547
6941.182247	0.085942	0.346086	9834.245117
6941.183125	0.086001	0.346086	9909.753906
6941.184090	0.086041	0.346086	9992.784180
6941.185008	0.085942	0.346086	10071.679687
6941.185928	0.085975	0.346086	10150.777344
6941.186805	0.085975	0.346086	10226.177734
6941.187755	0.086074	0.346086	10307.948242
6941.188693	0.085990	0.346086	10388.606445
6942.201304	1.038567	0.350606	460.085144
6942.202164	1.512590	0.350606	1760.912842
6942.203168	1.504003	0.350606	3270.931641
6942.204223	1.460757	0.350606	4812.030273
6942.205112	1.424022	0.350606	6077.986328
6942.206041	1.387493	0.350606	7366.966797
6942.207109	1.347422	0.350606	8806.013672
6942.208071	0.742657	0.350606	9520.450195
6942.208935	0.094471	0.350606	9602.073242
6942.209968	0.086008	0.350606	9690.919922
6942.210983	0.085983	0.350606	9778.192383
6942.211874	0.086041	0.350606	9854.855469
6942.212820	0.086012	0.350606	9936.222656
6942.213870	0.086111	0.350606	10026.638672
6942.214809	0.085942	0.350606	10107.338867
6942.215667	0.086060	0.350606	10181.177734
6942.216733	0.086038	0.350606	10272.893555
6942.217737	0.085964	0.350606	10359.202148
6943.231439	1.047268	0.342687	460.797943
6943.232306	1.512015	0.342687	1771.715332
6943.233387	1.501223	0.342687	3394.537598
6943.234380	1.459585	0.342687	4843.905273
6943.235268	1.423685	0.342687	6108.137695
6943.236279	1.384493	0.342687	7507.860352
6943.237328	1.345287	0.342687	8919.066406
6943.238225	0.727211	0.342687	9571.374023
6943.239085	0.094091	0.342687	9652.291992
6943.240190	0.086027	0.342687	9747.351562
6943.241158	0.085997	0.342687	9830.596680
6943.242014	0.085990	0.342687	9904.204102
6943.243101	0.086056	0.342687	9997.747070
6943.244142	0.085950	0.342687	10087.220703
6943.245014	0.086115	0.342687	10162.312500
6943.245935	0.086041	0.342687	10241.556641
6943.247002	0.086038	0.342687	10333.358398
6943.247947	0.085964	0.342687	10414.594727
6944.257512	1.074752	0.347299	499.759766
6944.258392	1.514630	0.347299	1832.634277
6944.259254	1.507753	0.347299	3132.316895
6944.260340	1.463525	0.347299	4721.705566
6944.261282	1.425000	0.347299	6064.055664
6944.262164	1.390052	0.347299	7290.082031
6944.263144	1.354065	0.347299	8617.065430
6944.264162	0.877419	0.347299	9510.278320
6944.265043	0.103568	0.347299	9601.521484
6944.265898	0.085891	0.347299	9674.958008
6944.266963	0.086008	0.347299	9766.556641
6944.267901	0.085909	0.347299	9847.139648
6944.268766	0.085983	0.347299	9921.514648
6944.269707	0.086147	0.347299	10002.579102
6944.270743	0.086001	0.347299	10091.675781
6944.271639	0.085917	0.347299	10168.657227
6944.272503	0.085902	0.347299	10242.876953
6944.273559	0.086008	0.347299	10333.702148
6945.287629	1.030887	0.344850	452.559601
6945.288491	1.511968	0.344850	1755.875854
6945.289502	1.503820	0.344850	3276.237305
6945.290577	1.460541	0.344850	4846.318359
6945.291451	1.423813	0.344850	6090.731445
6945.292367	1.387540	0.344850	7361.718262
6945.293434	1.347656	0.344850	8799.667969
6945.294397	0.757225	0.344850	9528.875977
6945.295261	0.095032	0.344850	9610.983398
6945.296284	0.086063	0.344850	9699.026367
6945.297315	0.085950	0.344850	9787.640625
6945.298203	0.086023	0.344850	9864.029297
6945.299133	0.086041	0.344850	9944.047852
6945.300191	0.086019	0.344850	10035.056641
6945.301137	0.085854	0.344850	10116.275391
6945.302001	0.085972	0.344850	10190.554687
6945.303048	0.086136	0.344850	10280.739258
6945.304053	0.085964	0.344850	10367.133789
6946.315809	1.094114	0.355762	573.315674
6946.316886	1.520343	0.355762	2210.725098
6946.317808	1.495646	0.355762	3589.710449
6946.318671	1.458516	0.355762	4848.409180
6946.319749	1.415826	0.355762	6374.669922
6946.320739	1.377239	0.355762	7738.136230
6946.321626	1.344331	0.355762	8930.557617
6946.322637	0.589644	0.355762	9526.687500
6946.323669	0.087283	0.355762	9616.763672
6946.324560	0.085920	0.355762	9693.318359
6946.325421	0.085917	0.355762	9767.292969
6946.326506	0.086107	0.355762	9860.719727
6946.327499	0.085906	0.355762	9946.024414
6946.328376	0.085975	0.355762	10021.424805
6946.329367	0.086074	0.355762	10106.724609
6946.330428	0.085979	0.355762	10197.948242
6946.331310	0.085836	0.355762	10273.655273
6946.332180	0.086038	0.355762	10348.507812
6947.344828	1.027859	0.358638	436.840027
6947.345812	1.512627	0.358638	1925.264893
6947.346875	1.498096	0.358638	3517.740723
6947.347787	1.459490	0.358638	4848.795410
6947.348657	1.422554	0.358638	6086.416992
6947.349765	1.380703	0.358638	7616.235840
6947.350737	1.344829	0.358638	8923.410156
6947.351614	0.749403	0.358638	9580.636719
6947.352686	0.089447	0.358638	9676.523437
6947.353719	0.085979	0.358638	9765.339844
6947.354611	0.086085	0.358638	9842.127930
6947.355531	0.086115	0.358638	9921.353516
6947.356575	0.086115	0.358638	10011.256836
6947.357520	0.086063	0.358638	10092.586914
6947.358383	0.086082	0.358638	10166.875000
6947.359420	0.086184	0.358638	10256.248047
6947.360453	0.086038	0.358638	10345.125000
6947.361333	0.086016	0.358638	10420.818359
6948.372407	1.020238	0.373334	428.499969
6948.373442	1.516945	0.373334	1998.537720
6948.374352	1.502194	0.373334	3365.533936
6948.375233	1.465393	0.373334	4656.544922
6948.376234	1.425304	0.373334	6083.274414
6948.377228	1.385369	0.373334	7460.331055
6948.378116	1.352109	0.373334	8661.003906
6948.378978	0.966423	0.373334	9494.060547
6948.380083	0.100173	0.373334	9604.751953
6948.380968	0.085964	0.373334	9680.830078
6948.381845	0.086041	0.373334	9756.288086
6948.382818	0.086111	0.373334	9840.074219
6948.383817	0.086100	0.373334	9926.087891
6948.384706	0.086063	0.373334	10002.597656
6948.385565	0.086093	0.373334	10076.550781
6948.386649	0.086085	0.373334	10169.867187
6948.387584	0.086100	0.373334	10250.370117
6948.388461	0.086027	0.373334	10325.815430
6949.402651	1.109938	0.373636	562.738464
6949.403664	1.520629	0.373636	2103.135254
6949.404555	1.500055	0.373636	3439.684082
6949.405522	1.459958	0.373636	4851.463867
6949.406577	1.416713	0.373636	6346.095703
6949.407509	1.380432	0.373636	7632.658203
6949.408378	1.347231	0.373636	8803.402344
6949.409466	0.604153	0.373636	9460.720703
6949.410461	0.087312	0.373636	9547.595703
6949.411358	0.086067	0.373636	9624.797852
6949.412343	0.086177	0.373636	9709.681641
6949.413386	0.086104	0.373636	9799.487305
6949.414290	0.086089	0.373636	9877.311523
6949.415151	0.086151	0.373636	9951.487305
6949.416242	0.086188	0.373636	10045.518555
6949.417210	0.086023	0.373636	10128.789062
6949.418069	0.086078	0.373636	10202.729492
6949.419141	0.086188	0.373636	10295.123047
6950.431675	1.040995	0.382184	440.340820
6950.432786	1.518494	0.382184	2127.387207
6950.433751	1.496697	0.382184	3571.699707
6950.434626	1.460035	0.382184	4849.230469
6950.435653	1.419122	0.382184	6306.668945
6950.436702	1.378063	0.382184	7752.256836
6950.437583	1.344748	0.382184	8936.980469
6950.438477	0.708853	0.382184	9570.694336
6950.439566	0.088253	0.382184	9666.801758
6950.440525	0.085990	0.382184	9749.266602
6950.441392	0.086008	0.382184	9823.835937
6950.442408	0.086228	0.382184	9911.443359
6950.443438	0.085990	0.382184	10000.012695
6950.444326	0.086008	0.382184	10076.387695
6950.445251	0.086023	0.382184	10155.958984
6950.446306	0.086136	0.382184	10246.833008
6950.447254	0.086093	0.382184	10328.449219
6950.448118	0.085983	0.382184	10402.738281
6951.459874	1.111974	0.382140	571.554565
6951.460763	1.518307	0.382140	1921.329346
6951.461628	1.503878	0.382140	3222.184082
6951.462755	1.459252	0.382140	4866.760742
6951.463713	1.420327	0.382140	6227.434082
6951.464576	1.386141	0.382140	7423.673828
6951.465620	1.347697	0.382140	8830.668945
6951.466658	0.633512	0.382140	9488.253906
6951.467539	0.090121	0.382140	9567.650391
6951.468470	0.086078	0.382140	9647.789062
6951.469521	0.086107	0.382140	9738.288086
6951.470461	0.086085	0.382140	9819.208008
6951.471318	0.086140	0.382140	9893.030273
6951.472344	0.086235	0.382140	9981.507812
6951.473374	0.086107	0.382140	10070.198242
6951.474263	0.085928	0.382140	10146.587891
6951.475209	0.086158	0.382140	10228.093750
6951.476268	0.086191	0.382140	10319.370117
6952.490949	1.036699	0.389846	448.890808
6952.491817	1.511389	0.389846	1760.776611
6952.492912	1.500908	0.389846	3404.270996
6952.493840	1.461837	0.389846	4760.855957
6952.494727	1.425776	0.389846	6025.519531
6952.495708	1.387859	0.389846	7387.009277
6952.496716	1.349542	0.389846	8747.347656
6952.497611	0.906497	0.389846	9558.662109
6952.498471	0.107677	0.389846	9651.264648
6952.499551	0.086016	0.389846	9744.161133
6952.500474	0.086005	0.389846	9823.542969
6952.501343	0.085979	0.389846	9898.258789
6952.502323	0.086067	0.389846	9982.604492
6952.503348	0.086030	0.389846	10070.785156
6952.504224	0.086085	0.389846	10146.195312
6952.505088	0.086016	0.389846	10220.512695
6952.506123	0.086111	0.389846	10309.637695
6952.507063	0.086049	0.389846	10390.523437
6953.515548	1.113933	0.389060	566.991943
6953.516562	1.520786	0.389060	2109.069092
6953.517456	1.499766	0.389060	3449.859375
6953.518413	1.459980	0.389060	4847.060547
6953.519458	1.417430	0.389060	6328.275391
6953.520380	1.381362	0.389060	7601.891602
6953.521248	1.348103	0.389060	8772.044922
6953.522329	0.647054	0.389060	9471.510742
6953.523338	0.087883	0.389060	9560.184570
6953.524213	0.085983	0.389060	9635.418945
6953.525202	0.086158	0.389060	9720.629883
6953.526246	0.086140	0.389060	9810.560547
6953.527150	0.086067	0.389060	9888.365234
6953.528006	0.086060	0.389060	9962.032227
6953.529066	0.086147	0.389060	10053.348633
6953.530054	0.085928	0.389060	10138.245117
6953.530938	0.086071	0.389060	10214.331055
6953.531922	0.086111	0.389060	10299.064453
6954.548232	1.067055	0.393512	537.795471
6954.549290	1.519677	0.393512	2145.613281
6954.550228	1.496854	0.393512	3549.662598
6954.551089	1.459794	0.393512	4806.544922
6954.552158	1.417277	0.393512	6321.613770
6954.553175	1.377316	0.393512	7722.343750
6954.554063	1.344404	0.393512	8916.174805
6954.555070	0.621823	0.393512	9542.349609
6954.556122	0.087422	0.393512	9634.317383
6954.557023	0.086034	0.393512	9711.833984
6954.557880	0.086085	0.393512	9785.609375
6954.558944	0.086074	0.393512	9877.192383
6954.559912	0.086071	0.393512	9960.508789
6954.560804	0.085953	0.393512	10037.178711
6954.561785	0.086030	0.393512	10121.574219
6954.562830	0.086111	0.393512	10211.559570
6954.563737	0.086052	0.393512	10289.609375
6954.564600	0.086104	0.393512	10363.916992
6955.571786	1.154839	0.399611	657.103333
6955.572848	1.520687	0.399611	2272.073242
6955.573727	1.496246	0.399611	3587.273926
6955.574613	1.457501	0.399611	4878.620117
6955.575716	1.414578	0.399611	6438.899414
6955.576678	1.377264	0.399611	7763.827637
6955.577542	1.344478	0.399611	8925.456055
6955.578573	0.568088	0.399611	9511.155273
6955.579602	0.087023	0.399611	9600.701172
6955.580490	0.086089	0.399611	9677.148437
6955.581418	0.086078	0.399611	9757.028320
6955.582473	0.086071	0.399611	9847.833008
6955.583411	0.085931	0.399611	9928.436523
6955.584275	0.086056	0.399611	10002.789062
6955.585324	0.086210	0.399611	10093.222656
6955.586339	0.086008	0.399611	10180.521484
6955.587226	0.086034	0.399611	10256.833984
6955.588169	0.086158	0.399611	10338.081055
6956.606428	1.070354	0.407083	476.307526
6956.607323	1.514810	0.407083	1832.062134
6956.608201	1.507767	0.407083	3155.881836
6956.609194	1.466682	0.407083	4612.297363
6956.610138	1.427157	0.407083	5959.533203
6956.611068	1.390975	0.407083	7253.140137
6956.611936	1.357386	0.407083	8431.351562
6956.612986	1.010599	0.407083	9492.480469
6956.613878	0.119747	0.407083	9599.294922
6956.614752	0.085931	0.407083	9674.399414
6956.615751	0.086111	0.407083	9760.423828
6956.616681	0.085917	0.407083	9840.326172
6956.617602	0.086016	0.407083	9919.546875
6956.618461	0.086056	0.407083	9993.468750
6956.619490	0.086082	0.407083	10082.046875
6956.620390	0.085990	0.407083	10159.437500
6956.621265	0.085990	0.407083	10234.678711
6956.622191	0.086125	0.407083	10314.430664
6957.627324	1.024578	0.412135	434.420898
6957.628384	1.516879	0.412135	2042.312256
6957.629409	1.496543	0.412135	3576.268799
6957.630300	1.458885	0.412135	4876.135742
6957.631251	1.420371	0.412135	6226.908691
6957.632321	1.378524	0.412135	7701.929687
6957.633257	1.343617	0.412135	8959.554687
6957.634125	0.720692	0.412135	9585.115234
6957.635177	0.089128	0.412135	9678.877930
6957.636194	0.085906	0.412135	9766.244141
6957.637087	0.086008	0.412135	9843.049805
6957.638047	0.085961	0.412135	9925.572266
6957.639102	0.086034	0.412135	10016.337891
6957.640018	0.085997	0.412135	10095.111328
6957.640883	0.085957	0.412135	10169.463867
6957.641961	0.086118	0.412135	10262.298828
6957.642959	0.085891	0.412135	10348.018555
6957.643851	0.085986	0.412135	10424.718750
6958.665242	1.104188	0.418302	558.719238
6958.666231	1.519977	0.418302	2061.976074
6958.667116	1.501190	0.418302	3390.529297
6958.668131	1.459369	0.418302	4871.789062
6958.669195	1.416775	0.418302	6379.237305
6958.670070	1.381208	0.418302	7587.794922
6958.670965	1.346770	0.418302	8793.154297
6958.672062	0.592020	0.418302	9442.600586
6958.673027	0.087620	0.418302	9527.153320
6958.673892	0.085990	0.418302	9601.534180
6958.674916	0.086140	0.418302	9689.741211
6958.675956	0.085975	0.418302	9779.155273
6958.676849	0.085950	0.418302	9855.908203
6958.677787	0.086085	0.418302	9936.656250
6958.678840	0.086056	0.418302	10027.273437
6958.679785	0.086001	0.418302	10108.543945
6958.680648	0.086016	0.418302	10182.775391
6958.681681	0.086177	0.418302	10271.795898
6959.682542	1.073855	0.417891	510.081085
6959.683417	1.514886	0.417891	1835.606689
6959.684281	1.507555	0.417891	3138.134277
6959.685340	1.463701	0.417891	4688.193848
6959.686303	1.424798	0.417891	6060.274902
6959.687172	1.390287	0.417891	7268.434082
6959.688216	1.351165	0.417891	8679.049805
6959.689241	0.795498	0.417891	9494.435547
6959.690135	0.096486	0.417891	9580.693359
6959.690995	0.085964	0.417891	9654.623047
6959.692075	0.086125	0.417891	9747.638672
6959.693008	0.085895	0.417891	9827.778320
6959.693866	0.086067	0.417891	9901.624023
6959.694914	0.086104	0.417891	9991.860352
6959.695939	0.085935	0.417891	10079.943359
6959.696805	0.086089	0.417891	10154.496094
6959.697758	0.086115	0.417891	10236.563477
6959.698807	0.086045	0.417891	10326.824219
6960.723427	1.054882	0.432059	484.190643
6960.724317	1.515007	0.432059	1832.547241
6960.725279	1.504061	0.432059	3279.454102
6960.726236	1.463635	0.432059	4680.153320
6960.727163	1.426490	0.432059	6002.509766
6960.728030	1.391444	0.432059	7208.891602
6960.729075	1.352922	0.432059	8622.695312
6960.729976	1.010435	0.432059	9533.096680
6960.730852	0.122527	0.432059	9640.430664
6960.731784	0.086005	0.432059	9720.586914
6960.732791	0.085946	0.432059	9807.134766
6960.733708	0.086082	0.432059	9886.071289
6960.734567	0.086133	0.432059	9960.059570
6960.735651	0.086074	0.432059	10053.364258
6960.736548	0.085968	0.432059	10130.477539
6960.737421	0.086027	0.432059	10205.579102
6960.738308	0.086104	0.432059	10281.953125
6960.739347	0.086118	0.432059	10371.429687
6961.737138	1.029558	0.414918	431.384827
6961.738203	1.517754	0.414918	2047.792725
6961.739198	1.496719	0.414918	3537.027832
6961.740091	1.459614	0.414918	4840.463379
6961.741078	1.419825	0.414918	6241.831055
6961.742139	1.378678	0.414918	7704.608398
6961.743045	1.344445	0.414918	8922.674805
6961.743925	0.715613	0.414918	9552.414062
6961.745046	0.088092	0.414918	9651.165039
6961.746005	0.085961	0.414918	9733.601562
6961.746877	0.085986	0.414918	9808.582031
6961.747909	0.086107	0.414918	9897.444336
6961.748947	0.086041	0.414918	9986.754883
6961.749831	0.085990	0.414918	10062.770508
6961.750717	0.086030	0.414918	10138.993164
6961.751790	0.086122	0.414918	10231.402344
6961.752740	0.085968	0.414918	10313.072266
6961.753601	0.086096	0.414918	10387.201172
6962.780668	1.056010	0.442049	516.388672
6962.781750	1.519453	0.442049	2160.437012
6962.782700	1.495609	0.442049	3581.265625
6962.783563	1.458820	0.442049	4840.226562
6962.784626	1.416277	0.442049	6345.728516
6962.785648	1.376594	0.442049	7752.607910
6962.786544	1.343119	0.442049	8956.042969
6962.787527	0.610924	0.442049	9556.581055
6962.788561	0.087382	0.442049	9646.933594
6962.789473	0.086023	0.442049	9725.386719
6962.790334	0.086008	0.442049	9799.439453
6962.791394	0.086107	0.442049	9890.712891
6962.792401	0.085953	0.442049	9977.267578
6962.793275	0.085917	0.442049	10052.358398
6962.794252	0.086122	0.442049	10136.499023
6962.795297	0.085986	0.442049	10226.354492
6962.796185	0.086034	0.442049	10302.752930
6962.797049	0.086056	0.442049	10377.105469
6963.792333	1.055793	0.412082	468.772278
6963.793217	1.513037	0.412082	1806.297119
6963.794225	1.503197	0.412082	3321.519775
6963.795266	1.460295	0.412082	4841.687500
6963.796164	1.423085	0.412082	6119.617676
6963.797032	1.387485	0.412082	7323.955078
6963.798122	1.348162	0.412082	8793.451172
6963.799106	0.750117	0.412082	9531.566406
6963.799965	0.094867	0.412082	9613.056641
6963.800984	0.086027	0.412082	9700.717773
6963.802022	0.086038	0.412082	9790.024414
6963.802895	0.085961	0.412082	9865.068359
6963.803786	0.086023	0.412082	9941.714844
6963.804864	0.086173	0.412082	10034.609375
6963.805828	0.086001	0.412082	10117.514648
6963.806695	0.085939	0.412082	10192.023437
6963.807706	0.086136	0.412082	10279.107422
6963.808750	0.086023	0.412082	10368.915039
6964.838893	1.074038	0.447664	492.983521
6964.839766	1.514176	0.447664	1814.859131
6964.840638	1.508119	0.447664	3129.938965
6964.841641	1.466726	0.447664	4601.065430
6964.842575	1.427725	0.447664	5934.560059
6964.843493	1.391726	0.447664	7212.164551
6964.844370	1.357910	0.447664	8403.051758
6964.845412	1.035198	0.447664	9481.727539
6964.846299	0.125024	0.447664	9592.624023
6964.847176	0.085913	0.447664	9667.969727
6964.848135	0.086056	0.447664	9750.497070
6964.849099	0.086078	0.447664	9833.476562
6964.850010	0.086041	0.447664	9911.860352
6964.850874	0.086019	0.447664	9986.180664
6964.851906	0.086060	0.447664	10074.994141
6964.852773	0.085990	0.447664	10149.547852
6964.853643	0.086023	0.447664	10224.387695
6964.854503	0.086049	0.447664	10298.389648
6965.849027	1.028745	0.405996	445.446594
6965.849896	1.511309	0.405996	1758.773682
6965.850948	1.502208	0.405996	3339.096680
6965.851960	1.460156	0.405996	4816.774902
6965.852855	1.423524	0.405996	6090.829102
6965.853814	1.386449	0.405996	7420.433594
6965.854866	1.346997	0.405996	8837.474609
6965.855797	0.760752	0.405996	9545.734375
6965.856654	0.095764	0.405996	9627.804687
6965.857720	0.086067	0.405996	9719.551758
6965.858728	0.086012	0.405996	9806.251953
6965.859601	0.086019	0.405996	9881.346680
6965.860588	0.086122	0.405996	9966.348633
6965.861653	0.086104	0.405996	10058.048828
6965.862542	0.085950	0.405996	10134.458008
6965.863404	0.086104	0.405996	10208.679687
6965.864487	0.086118	0.405996	10301.945312
6965.865478	0.086074	0.405996	10387.245117
6966.897197	1.119818	0.446855	606.941406
6966.898252	1.520284	0.446855	2210.841309
6966.899171	1.495569	0.446855	3585.269043
6966.900042	1.457424	0.446855	4854.685547
6966.901150	1.414105	0.446855	6421.514160
6966.902124	1.376517	0.446855	7762.242187
6966.902996	1.343914	0.446855	8934.134766
6966.904066	0.507751	0.446855	9477.428711
6966.905103	0.086503	0.446855	9567.131836
6966.905990	0.086027	0.446855	9643.437500
6966.906918	0.086030	0.446855	9723.273437
6966.907964	0.086089	0.446855	9813.322266
6966.908910	0.086001	0.446855	9894.678711
6966.909772	0.086008	0.446855	9968.818359
6966.910816	0.086129	0.446855	10058.737305
6966.911834	0.086001	0.446855	10146.286133
6966.912713	0.086085	0.446855	10221.955078
6966.913665	0.086129	0.446855	10303.950195
6967.906741	1.018334	0.411865	426.681854
6967.907774	1.516091	0.411865	1992.804077
6967.908742	1.499692	0.411865	3444.506348
6967.909621	1.462588	0.411865	4730.121094
6967.910511	1.425293	0.411865	5998.631836
6967.911606	1.384061	0.411865	7514.178711
6967.912494	1.350355	0.411865	8713.293945
6967.913363	0.974092	0.411865	9559.779297
6967.914405	0.101693	0.411865	9665.743164
6967.915373	0.085876	0.411865	9748.871094
6967.916237	0.085953	0.411865	9823.134766
6967.917092	0.085972	0.411865	9896.640625
6967.918197	0.086023	0.411865	9991.696289
6967.919082	0.086074	0.411865	10067.872070
6967.919958	0.085909	0.411865	10143.128906
6967.920952	0.086169	0.411865	10228.781250
6967.921958	0.086016	0.411865	10315.312500
6967.922853	0.085953	0.411865	10392.241211
6968.954882	1.088562	0.441590	534.483948
6968.955763	1.516260	0.441590	1870.308838
6968.956684	1.504369	0.441590	3255.832520
6968.957753	1.459863	0.441590	4816.426270
6968.958707	1.421430	0.441590	6172.469727
6968.959577	1.386855	0.441590	7379.034180
6968.960637	1.347440	0.441590	8807.320312
6968.961662	0.661670	0.441590	9485.532227
6968.962549	0.090630	0.441590	9565.920898
6968.963494	0.086067	0.441590	9647.253906
6968.964542	0.086118	0.441590	9737.505859
6968.965471	0.085986	0.441590	9817.386719
6968.966331	0.086129	0.441590	9891.458008
6968.967382	0.086104	0.441590	9981.953125
6968.968396	0.086063	0.441590	10069.221680
6968.969273	0.086115	0.441590	10144.744141
6968.970242	0.086133	0.441590	10228.207031
6968.971287	0.086151	0.441590	10318.235352
6969.965030	1.077766	0.417766	493.616852
6969.965912	1.514271	0.417766	1829.204102
6969.966925	1.502519	0.417766	3351.256348
6969.967978	1.458728	0.417766	4887.296875
6969.968874	1.421653	0.417766	6161.097656
6969.969739	1.386002	0.417766	7359.989258
6969.970833	1.346671	0.417766	8833.247070
6969.971811	0.707461	0.417766	9525.143555
6969.972674	0.092827	0.417766	9605.252930
6969.973746	0.086104	0.417766	9697.555664
6969.974784	0.086049	0.417766	9786.874023
6969.975676	0.086045	0.417766	9863.625977
6969.976607	0.086111	0.417766	9943.794922
6969.977689	0.086082	0.417766	10036.935547
6969.978625	0.086027	0.417766	10117.456055
6969.979490	0.086005	0.417766	10191.849609
6969.980533	0.086169	0.417766	10281.724609
6969.981556	0.086016	0.417766	10369.718750
6971.013669	1.126128	0.451221	588.964844
6971.014709	1.520761	0.451221	2170.555664
6971.015606	1.497678	0.451221	3513.973145
6971.016552	1.458230	0.451221	4893.458984
6971.017616	1.414970	0.451221	6398.986328
6971.018555	1.378623	0.451221	7693.513184
6971.019432	1.345236	0.451221	8873.285156
6971.020503	0.562324	0.451221	9475.534180
6971.021513	0.086957	0.451221	9563.360352
6971.022406	0.085972	0.451221	9640.132812
6971.023365	0.086089	0.451221	9722.692383
6971.024417	0.086089	0.451221	9813.257812
6971.025338	0.086118	0.451221	9892.572266
6971.026197	0.085957	0.451221	9966.409180
6971.027280	0.086224	0.451221	10059.790039
6971.028277	0.086063	0.451221	10145.594727
6971.029150	0.086049	0.451221	10220.714844
6971.030133	0.086129	0.451221	10305.379883
6972.022745	1.051293	0.431293	467.825287
6972.023612	1.512085	0.431293	1778.802979
6972.024662	1.502487	0.431293	3356.414062
6972.025548	1.464822	0.431293	4654.246094
6972.026417	1.429003	0.431293	5896.049316
6972.027343	1.392239	0.431293	7185.262207
6972.028322	1.355420	0.431293	8512.218750
6972.029240	1.079066	0.431293	9502.801758
6972.030121	0.136831	0.431293	9623.349609
6972.031162	0.086041	0.431293	9712.918945
6972.032060	0.086096	0.431293	9790.233398
6972.032937	0.085924	0.431293	9865.588867
6972.033792	0.086107	0.431293	9939.210937
6972.034844	0.086008	0.431293	10029.691406
6972.035728	0.086012	0.431293	10105.725586
6972.036592	0.086016	0.431293	10180.042969
6972.037568	0.086093	0.431293	10264.069336
6972.038492	0.086074	0.431293	10343.601562
6973.071324	1.066318	0.456059	487.307465
6973.072202	1.513920	0.456059	1816.529053
6973.073175	1.503904	0.456059	3279.827393
6973.074235	1.459958	0.456059	4827.383301
6973.075160	1.422111	0.456059	6142.835449
6973.076028	1.386859	0.456059	7346.628906
6973.077125	1.346946	0.456059	8824.228516
6973.078120	0.679775	0.456059	9500.605469
6973.079015	0.090912	0.456059	9581.971680
6973.080006	0.086078	0.456059	9667.274414
6973.081045	0.086082	0.456059	9756.712891
6973.081940	0.085968	0.456059	9833.654297
6973.082800	0.086067	0.456059	9907.671875
6973.083896	0.086089	0.456059	10002.025391
6973.084864	0.086041	0.456059	10085.313477
6973.085724	0.086001	0.456059	10159.274414
6973.086773	0.086129	0.456059	10249.624023
6973.087815	0.086023	0.456059	10339.259766
6974.081497	1.060085	0.452857	471.738007
6974.082367	1.512843	0.452857	1787.911499
6974.083415	1.501674	0.452857	3361.665527
6974.084449	1.458743	0.452857	4870.005371
6974.085338	1.422319	0.452857	6134.447266
6974.086303	1.384933	0.452857	7470.907227
6974.087357	1.345173	0.452857	8888.719727
6974.088291	0.705634	0.452857	9547.781250
6974.089154	0.093113	0.452857	9628.137695
6974.090198	0.086074	0.452857	9717.999023
6974.091210	0.085997	0.452857	9805.028320
6974.092080	0.086001	0.452857	9879.849609
6974.093043	0.086125	0.452857	9962.788086
6974.094085	0.086067	0.452857	10052.469727
6974.095006	0.086023	0.452857	10131.697266
6974.095870	0.086045	0.452857	10206.040039
6974.096945	0.086155	0.452857	10298.656250
6974.097935	0.086071	0.452857	10383.866211
6975.127999	1.024761	0.463427	439.622345
6975.128871	1.511374	0.463427	1757.540894
6975.129889	1.503322	0.463427	3287.922363
6975.130931	1.460321	0.463427	4809.577148
6975.131826	1.423557	0.463427	6083.660645
6975.132737	1.387196	0.463427	7347.396484
6975.133817	1.347275	0.463427	8802.454102
6975.134769	0.766110	0.463427	9531.790039
6975.135635	0.095380	0.463427	9614.388672
6975.136692	0.086082	0.463427	9705.376953
6975.137709	0.086012	0.463427	9792.851562
6975.138604	0.086089	0.463427	9869.901367
6975.139557	0.086071	0.463427	9951.926758
6975.140588	0.086082	0.463427	10040.676758
6975.141520	0.086016	0.463427	10120.843750
6975.142381	0.085961	0.463427	10194.855469
6975.143447	0.086100	0.463427	10286.637695
6975.144452	0.085961	0.463427	10373.028320
6976.138181	1.035165	0.467121	446.156036
6976.139045	1.510741	0.467121	1751.436279
6976.140134	1.500941	0.467121	3385.961182
6976.141124	1.459299	0.467121	4830.667480
6976.142017	1.423195	0.467121	6101.580078
6976.143027	1.384069	0.467121	7499.489258
6976.144072	1.345129	0.467121	8905.149414
6976.144974	0.732989	0.467121	9566.305664
6976.145833	0.094340	0.467121	9647.343750
6976.146934	0.086147	0.467121	9742.192383
6976.147895	0.085979	0.467121	9824.818359
6976.148754	0.085950	0.467121	9898.649414
6976.149812	0.086100	0.467121	9989.743164
6976.150853	0.085986	0.467121	10079.254883
6976.151724	0.086012	0.467121	10154.170898
6976.152633	0.086060	0.467121	10232.399414
6976.153700	0.086118	0.467121	10324.287109
6976.154648	0.086005	0.467121	10405.819336
6977.185211	1.030294	0.467548	438.905334
6977.186212	1.513279	0.467548	1953.697510
6977.187288	1.496847	0.467548	3564.304687
6977.188190	1.458153	0.467548	4879.558594
6977.189058	1.421162	0.467548	6113.127441
6977.190173	1.379271	0.467548	7651.014648
6977.191144	1.343547	0.467548	8955.599609
6977.192013	0.726877	0.467548	9587.255859
6977.193053	0.090048	0.467548	9680.905273
6977.194071	0.086012	0.467548	9768.465820
6977.194947	0.085975	0.467548	9843.780273
6977.195862	0.086118	0.467548	9922.578125
6977.196921	0.086096	0.467548	10013.753906
6977.197858	0.085990	0.467548	10094.326172
6977.198715	0.086074	0.467548	10168.091797
6977.199752	0.086052	0.467548	10257.328125
6977.200781	0.086023	0.467548	10345.845703
6977.201648	0.086038	0.467548	10420.440430
6978.197487	1.085830	0.480097	507.082642
6978.198365	1.514238	0.480097	1836.583862
6978.199353	1.503223	0.480097	3321.767822
6978.200411	1.458882	0.480097	4865.264648
6978.201325	1.421470	0.480097	6164.487793
6978.202187	1.386292	0.480097	7359.471191
6978.203277	1.346605	0.480097	8827.271484
6978.204280	0.665610	0.480097	9494.878906
6978.205166	0.090784	0.480097	9575.313477
6978.206167	0.086052	0.480097	9661.452148
6978.207220	0.086089	0.480097	9752.103516
6978.208104	0.086078	0.480097	9828.196289
6978.208975	0.086089	0.480097	9903.179687
6978.210082	0.086089	0.480097	9998.480469
6978.211035	0.085946	0.480097	10080.386719
6978.211902	0.085994	0.480097	10154.943359
6978.212948	0.086093	0.480097	10244.996094
6978.213985	0.086045	0.480097	10334.224609
6979.243450	1.037875	0.476145	436.945312
6979.244454	1.516410	0.476145	1959.420776
6979.245384	1.502501	0.476145	3356.747070
6979.246255	1.465305	0.476145	4633.027832
6979.247292	1.424088	0.476145	6109.807129
6979.248170	1.388350	0.476145	7328.778320
6979.249087	1.354025	0.476145	8570.418945
6979.249966	1.066827	0.476145	9508.160156
6979.250950	0.115496	0.476145	9621.807617
6979.251875	0.085928	0.476145	9701.291016
6979.252748	0.086071	0.476145	9776.430664
6979.253844	0.086089	0.476145	9870.784180
6979.254737	0.086012	0.476145	9947.592773
6979.255642	0.086060	0.476145	10025.476562
6979.256507	0.086063	0.476145	10099.920898
6979.257491	0.086082	0.476145	10184.625000
6979.258413	0.085979	0.476145	10263.897461
6979.259281	0.086056	0.476145	10338.593750
6980.254657	1.029225	0.491037	437.420563
6980.255597	1.510459	0.491037	1857.251953
6980.256652	1.499030	0.491037	3438.728027
6980.257602	1.459490	0.491037	4825.243164
6980.258473	1.423755	0.491037	6065.333984
6980.259522	1.382699	0.491037	7515.785156
6980.260547	1.344800	0.491037	8894.205078
6980.261443	0.749341	0.491037	9565.614258
6980.262400	0.094310	0.491037	9655.869141
6980.263446	0.086034	0.491037	9745.860352
6980.264377	0.085983	0.491037	9825.910156
6980.265238	0.085906	0.491037	9899.875000
6980.266311	0.086071	0.491037	9992.228516
6980.267303	0.086023	0.491037	10077.563477
6980.268183	0.085946	0.491037	10153.196289
6980.269162	0.086001	0.491037	10237.391602
6980.270194	0.086118	0.491037	10326.265625
6980.271097	0.085975	0.491037	10403.901367
6981.300256	1.104782	0.486473	568.962463
6981.301130	1.517190	0.486473	1894.986572
6981.302006	1.503677	0.486473	3212.207520
6981.303120	1.459178	0.486473	4837.732422
6981.304080	1.420258	0.486473	6201.179687
6981.304945	1.385922	0.486473	7400.001953
6981.305975	1.347660	0.486473	8788.091797
6981.307017	0.660956	0.486473	9476.807617
6981.307902	0.090593	0.486473	9556.982422
6981.308824	0.085990	0.486473	9636.265625
6981.309888	0.086030	0.486473	9727.801758
6981.310816	0.085994	0.486473	9807.603516
6981.311683	0.085990	0.486473	9882.157227
6981.312713	0.086144	0.486473	9970.885742
6981.313750	0.085994	0.486473	10060.061523
6981.314636	0.086074	0.486473	10136.323242
6981.315583	0.086144	0.486473	10217.901367
6981.316630	0.086052	0.486473	10307.998047
6982.312428	1.060690	0.500810	502.766907
6982.313518	1.519589	0.500810	2159.118652
6982.314396	1.498491	0.500810	3474.793945
6982.315269	1.461654	0.500810	4750.817871
6982.316293	1.419965	0.500810	6204.861328
6982.317270	1.382003	0.500810	7555.078613
6982.318142	1.349249	0.500810	8731.624023
6982.319039	0.869004	0.500810	9511.120117
6982.320147	0.091952	0.500810	9613.002930
6982.321038	0.085796	0.500810	9689.447266
6982.321905	0.086019	0.500810	9764.026367
6982.322956	0.086136	0.500810	9854.555664
6982.323933	0.086016	0.500810	9938.592773
6982.324801	0.085939	0.500810	10013.187500
6982.325656	0.085946	0.500810	10086.670898
6982.326751	0.086038	0.500810	10180.881836
6982.327640	0.085961	0.500810	10257.300781
6982.328504	0.085972	0.500810	10331.580078
6983.357892	1.037336	0.492326	448.129303
6983.358765	1.511752	0.492326	1767.888550
6983.359765	1.504420	0.492326	3272.308594
6983.360702	1.464628	0.492326	4644.664551
6983.361622	1.427688	0.492326	5958.137695
6983.362489	1.392400	0.492326	7165.348633
6983.363541	1.353735	0.492326	8589.478516
6983.364421	1.050513	0.492326	9513.929687
6983.365299	0.132206	0.492326	9630.006836
6983.366246	0.085983	0.492326	9711.432617
6983.367216	0.085972	0.492326	9794.825195
6983.368128	0.085961	0.492326	9873.221680
6983.369002	0.085924	0.492326	9948.319336
6983.370043	0.086001	0.492326	10037.846680
6983.370959	0.085928	0.492326	10116.556641
6983.371841	0.085836	0.492326	10192.263672
6983.372724	0.086001	0.492326	10268.202148
6983.373766	0.086001	0.492326	10357.815430
6984.369187	1.109930	0.511199	572.724060
6984.370209	1.519849	0.511199	2126.009521
6984.371091	1.499015	0.511199	3448.140625
6984.372082	1.458461	0.511199	4893.475098
6984.373151	1.414834	0.511199	6405.932617
6984.374056	1.378923	0.511199	7653.858398
6984.374919	1.345595	0.511199	8815.106445
6984.376001	0.588256	0.511199	9451.598633
6984.377004	0.087015	0.511199	9538.875000
6984.377902	0.085891	0.511199	9616.004883
6984.378875	0.086001	0.511199	9699.683594
6984.379934	0.086056	0.511199	9790.816406
6984.380820	0.085931	0.511199	9866.951172
6984.381686	0.086023	0.511199	9941.447266
6984.382797	0.086008	0.511199	10037.002930
6984.383755	0.085942	0.511199	10119.335937
6984.384620	0.085994	0.511199	10193.720703
6984.385661	0.086045	0.511199	10283.293945
6985.414586	1.024805	0.500274	432.467590
6985.415636	1.516981	0.500274	2025.297852
6985.416666	1.495814	0.500274	3565.986328
6985.417563	1.458193	0.500274	4873.985840
6985.418522	1.419833	0.500274	6235.605469
6985.419582	1.378250	0.500274	7696.549805
6985.420518	1.343148	0.500274	8953.736328
6985.421395	0.709607	0.500274	9576.061523
6985.422455	0.088711	0.500274	9670.094727
6985.423447	0.085972	0.500274	9755.378906
6985.424336	0.085994	0.500274	9831.827148
6985.425326	0.086038	0.500274	9917.003906
6985.426363	0.086001	0.500274	10006.186523
6985.427265	0.085935	0.500274	10083.700195
6985.428122	0.085891	0.500274	10157.308594
6985.429189	0.086155	0.500274	10249.235352
6985.430179	0.086005	0.500274	10334.379883
6985.431048	0.085964	0.500274	10409.083008
6986.427319	1.018975	0.517201	426.950348
6986.428216	1.509324	0.517201	1780.813721
6986.429319	1.499176	0.517201	3434.404785
6986.430273	1.459464	0.517201	4826.733398
6986.431145	1.423641	0.517201	6068.148437
6986.432201	1.382618	0.517201	7528.193359
6986.433235	1.343998	0.517201	8917.886719
6986.434134	0.716418	0.517201	9561.947266
6986.435081	0.093340	0.517201	9650.339844
6986.436118	0.086016	0.517201	9739.538086
6986.437043	0.085946	0.517201	9819.038086
6986.437906	0.085884	0.517201	9893.156250
6986.438968	0.086085	0.517201	9984.579102
6986.439979	0.086012	0.517201	10071.537109
6986.440858	0.086030	0.517201	10147.158203
6986.441829	0.086071	0.517201	10230.732422
6986.442877	0.085983	0.517201	10320.841797
6986.443791	0.085957	0.517201	10399.406250
6987.471292	1.030704	0.505745	440.110779
6987.472157	1.510353	0.505745	1746.565918
6987.473218	1.502223	0.505745	3340.424316
6987.474111	1.464448	0.505745	4648.176758
6987.474991	1.428787	0.505745	5905.508789
6987.475977	1.390378	0.505745	7276.421875
6987.476931	1.353790	0.505745	8567.937500
6987.477854	1.030261	0.505745	9518.868164
6987.478724	0.128331	0.505745	9630.516602
6987.479773	0.085811	0.505745	9720.532227
6987.480651	0.085880	0.505745	9795.934570
6987.481518	0.085972	0.505745	9870.471680
6987.482459	0.086052	0.505745	9951.447266
6987.483442	0.085884	0.505745	10035.871094
6987.484353	0.085928	0.505745	10114.151367
6987.485226	0.085851	0.505745	10189.099609
6987.486273	0.085972	0.505745	10279.112305
6987.487177	0.085942	0.505745	10356.804687
6988.484542	1.044521	0.520972	446.010651
6988.485636	1.517794	0.520972	2106.477539
6988.486622	1.495745	0.520972	3581.281738
6988.487500	1.458849	0.520972	4862.150879
6988.488513	1.418705	0.520972	6299.298828
6988.489554	1.378114	0.520972	7733.915527
6988.490442	1.344232	0.520972	8927.593750
6988.491340	0.710845	0.520972	9565.932617
6988.492458	0.088136	0.520972	9664.468750
6988.493394	0.086008	0.520972	9744.972656
6988.494263	0.086001	0.520972	9819.707031
6988.495288	0.086027	0.520972	9907.884766
6988.496321	0.086067	0.520972	9996.791992
6988.497209	0.085986	0.520972	10073.147461
6988.498145	0.086067	0.520972	10153.706055
6988.499212	0.086052	0.520972	10245.523437
6988.500147	0.086016	0.520972	10325.948242
6988.501013	0.086049	0.520972	10400.466797
6989.530564	1.028511	0.527220	440.202637
6989.531563	1.511792	0.527220	1950.482788
6989.532611	1.497411	0.527220	3519.769531
6989.533526	1.458702	0.527220	4854.482422
6989.534388	1.422367	0.527220	6080.562500
6989.535475	1.381238	0.527220	7581.967773
6989.536478	1.343643	0.527220	8929.641602
6989.537362	0.722992	0.527220	9568.766602
6989.538345	0.091791	0.527220	9658.997070
6989.539398	0.085964	0.527220	9749.517578
6989.540293	0.085898	0.527220	9826.396484
6989.541153	0.085994	0.527220	9900.350586
6989.542268	0.086008	0.527220	9996.250000
6989.543232	0.085972	0.527220	10079.126953
6989.544103	0.085968	0.527220	10154.004883
6989.545117	0.085961	0.527220	10241.168945
6989.546155	0.085928	0.527220	10330.362305
6989.547046	0.086030	0.527220	10407.015625
6990.540747	1.036040	0.526527	451.713470
6990.541619	1.512048	0.526527	1770.219727
6990.542665	1.502519	0.526527	3341.854980
6990.543565	1.464064	0.526527	4659.512207
6990.544446	1.428047	0.526527	5917.621582
6990.545328	1.391858	0.526527	7145.240234
6990.546363	1.353973	0.526527	8546.602539
6990.547251	1.074650	0.526527	9500.891602
6990.548122	0.139915	0.526527	9622.756836
6990.549134	0.085931	0.526527	9709.719727
6990.550027	0.085939	0.526527	9786.462891
6990.550906	0.085865	0.526527	9861.938477
6990.551872	0.085953	0.526527	9944.969727
6990.552889	0.085957	0.526527	10032.387695
6990.553779	0.085964	0.526527	10108.895508
6990.554641	0.086045	0.526527	10183.066406
6990.555731	0.085964	0.526527	10276.767578
6990.556667	0.085961	0.526527	10357.226562
6991.588397	1.123480	0.539707	586.456665
6991.589437	1.520537	0.539707	2167.815430
6991.590331	1.497437	0.539707	3506.523682
6991.591305	1.457245	0.539707	4925.879883
6991.592365	1.413995	0.539707	6424.714844
6991.593288	1.377924	0.539707	7696.538086
6991.594150	1.344771	0.539707	8855.730469
6991.595242	0.565356	0.539707	9473.099609
6991.596235	0.086927	0.539707	9559.418945
6991.597112	0.086012	0.539707	9634.851562
6991.598106	0.086071	0.539707	9720.405273
6991.599163	0.086078	0.539707	9811.389648
6991.600036	0.086030	0.539707	9886.494141
6991.600938	0.085979	0.539707	9964.046875
6991.601818	0.085983	0.539707	10039.711914
6991.602760	0.085935	0.539707	10120.663086
6991.603707	0.086030	0.539707	10202.133789
6991.604625	0.085950	0.539707	10281.035156
6992.598084	1.151082	0.525858	648.058899
6992.599135	1.520321	0.525858	2245.916260
6992.600020	1.495942	0.525858	3569.825195
6992.600915	1.457355	0.525858	4874.157715
6992.602005	1.414120	0.525858	6415.548340
6992.602963	1.376865	0.525858	7734.585449
6992.603828	1.344763	0.525858	8897.805664
6992.604874	0.585480	0.525858	9510.217773
6992.605911	0.087019	0.525858	9600.456055
6992.606788	0.085935	0.525858	9675.821289
6992.607719	0.086008	0.525858	9755.894531
6992.608803	0.085983	0.525858	9849.099609
6992.609719	0.085950	0.525858	9927.829102
6992.610589	0.085935	0.525858	10002.592773
6992.611624	0.086071	0.525858	10091.675781
6992.612655	0.085939	0.525858	10180.278320
6992.613537	0.085906	0.525858	10256.046875
6992.614485	0.085994	0.525858	10337.569336
6993.645580	1.097062	0.552284	548.530884
6993.646476	1.517161	0.552284	1907.906738
6993.647348	1.502981	0.552284	3218.506104
6993.648460	1.458285	0.552284	4840.119141
6993.649444	1.418980	0.552284	6236.395020
6993.650312	1.384713	0.552284	7438.326172
6993.651391	1.344349	0.552284	8888.878906
6993.652436	0.560559	0.552284	9474.663086
6993.653333	0.087916	0.552284	9553.524414
6993.654268	0.085906	0.552284	9633.846680
6993.655321	0.086008	0.552284	9724.413086
6993.656267	0.085906	0.552284	9805.679687
6993.657135	0.085953	0.552284	9880.287109
6993.658180	0.086027	0.552284	9970.184570
6993.659186	0.085968	0.552284	10056.667969
6993.660073	0.086030	0.552284	10132.976562
6993.661018	0.086027	0.552284	10214.271484
6993.662059	0.086008	0.552284	10303.805664
6994.656198	1.036201	0.525500	449.711273
6994.657077	1.511938	0.525500	1778.705200
6994.658035	1.505120	0.525500	3220.609863
6994.659066	1.462321	0.525500	4728.262207
6994.659955	1.425985	0.525500	5995.962891
6994.660820	1.391180	0.525500	7199.333984
6994.661900	1.351282	0.525500	8658.718750
6994.662857	0.906002	0.525500	9525.762695
6994.663731	0.106058	0.525500	9618.458008
6994.664677	0.086034	0.525500	9699.845703
6994.665703	0.086005	0.525500	9788.086914
6994.666585	0.085917	0.525500	9863.865234
6994.667447	0.086001	0.525500	9937.998047
6994.668481	0.086034	0.525500	10026.957031
6994.669421	0.085920	0.525500	10107.722656
6994.670298	0.085880	0.525500	10183.039062
6994.671205	0.086038	0.525500	10261.075195
6994.672280	0.085986	0.525500	10353.510742
6995.702265	1.082966	0.555889	526.321655
6995.703145	1.514982	0.555889	1859.505493
6995.704060	1.504673	0.555889	3236.281250
6995.704941	1.467429	0.555889	4529.086426
6995.705907	1.427812	0.555889	5908.353516
6995.706828	1.391422	0.555889	7189.853516
6995.707754	1.356885	0.555889	8446.329102
6995.708621	1.150111	0.555889	9443.475586
6995.709594	0.154581	0.555889	9593.882812
6995.710527	0.085950	0.555889	9674.074219
6995.711389	0.085968	0.555889	9748.178711
6995.712419	0.085972	0.555889	9836.729492
6995.713286	0.086041	0.555889	9911.327148
6995.714197	0.086067	0.555889	9989.734375
6995.715075	0.085975	0.555889	10065.220703
6995.716044	0.086016	0.555889	10148.570312
6995.716961	0.085924	0.555889	10227.362305
6995.717838	0.085997	0.555889	10302.782227
6996.713407	1.028899	0.526563	438.310944
6996.714436	1.516110	0.526563	1998.387695
6996.715475	1.496473	0.526563	3553.223633
6996.716374	1.458292	0.526563	4864.228516
6996.717318	1.420481	0.526563	6205.162598
6996.718380	1.378824	0.526563	7669.474121
6996.719319	1.343793	0.526563	8931.294922
6996.720186	0.758419	0.526563	9588.844727
6996.721241	0.090157	0.526563	9683.960937
6996.722252	0.085964	0.526563	9770.871094
6996.723132	0.086056	0.526563	9846.600586
6996.724097	0.086180	0.526563	9929.764648
6996.725145	0.086008	0.526563	10019.901367
6996.726059	0.085898	0.526563	10098.412109
6996.726918	0.086008	0.526563	10172.292969
6996.727973	0.086129	0.526563	10263.159180
6996.728970	0.085990	0.526563	10348.891602
6996.729856	0.085818	0.526563	10424.925781
6997.757991	1.113124	0.556050	573.258728
6997.758979	1.519893	0.556050	2074.912598
6997.759858	1.500458	0.556050	3393.814941
6997.760862	1.458706	0.556050	4858.355957
6997.761929	1.416182	0.556050	6369.421875
6997.762805	1.380656	0.556050	7578.875977
6997.763689	1.346506	0.556050	8769.187500
6997.764796	0.602476	0.556050	9436.127930
6997.765762	0.087737	0.556050	9520.881836
6997.766624	0.085865	0.556050	9594.897461
6997.767642	0.086041	0.556050	9682.487305
6997.768683	0.085972	0.556050	9771.983398
6997.769571	0.086023	0.556050	9848.372070
6997.770485	0.086078	0.556050	9927.046875
6997.771559	0.086147	0.556050	10019.569336
6997.772515	0.085986	0.556050	10101.772461
6997.773375	0.085920	0.556050	10175.664062
6997.774431	0.086063	0.556050	10266.546875
6998.772700	1.059122	0.535973	469.191193
6998.773573	1.512938	0.535973	1789.986206
6998.774439	1.505929	0.535973	3094.120605
6998.775491	1.464100	0.535973	4634.354004
6998.776398	1.427241	0.535973	5928.861816
6998.777283	1.392462	0.535973	7161.190918
6998.778271	1.355709	0.535973	8500.631836
6998.779213	1.042624	0.535973	9482.784180
6998.780140	0.121110	0.535973	9595.052734
6998.781002	0.085957	0.535973	9669.147461
6998.782039	0.085917	0.535973	9758.243164
6998.782913	0.085983	0.535973	9833.391602
6998.783782	0.086034	0.535973	9908.155273
6998.784736	0.086100	0.535973	9990.294922
6998.785688	0.085876	0.535973	10072.048828
6998.786599	0.085953	0.535973	10150.352539
6998.787482	0.086034	0.535973	10226.320312
6998.788496	0.086115	0.535973	10313.640625
6999.814676	1.103745	0.555237	556.287537
6999.815629	1.518812	0.555237	2003.715576
6999.816491	1.502527	0.555237	3298.893799
6999.817549	1.458765	0.555237	4842.266602
6999.818589	1.417057	0.555237	6316.005859
6999.819464	1.382241	0.555237	7525.466797
6999.820424	1.346953	0.555237	8818.541992
6999.821485	0.607906	0.555237	9463.531250
6999.822412	0.088385	0.555237	9545.463867
6999.823276	0.085902	0.555237	9619.683594
6999.824335	0.086093	0.555237	9710.855469
6999.825327	0.086030	0.555237	9796.197266
6999.826218	0.086049	0.555237	9872.866211
6999.827166	0.086133	0.555237	9954.520508
6999.828212	0.086085	0.555237	10044.565430
6999.829134	0.085979	0.555237	10123.837891
6999.829994	0.086049	0.555237	10197.839844
6999.831075	0.086078	0.555237	10290.889648
7000.830517	1.124348	0.547853	616.142700
7000.831578	1.519882	0.547853	2228.737061
7000.832484	1.495309	0.547853	3583.486816
7000.833349	1.457428	0.547853	4844.162109
7000.834454	1.414384	0.547853	6407.055664
7000.835424	1.376788	0.547853	7742.540039
7000.836287	1.344397	0.547853	8902.754883
7000.837352	0.566858	0.547853	9506.458984
7000.838389	0.086865	0.547853	9596.538086
7000.839257	0.085990	0.547853	9671.177734
7000.840162	0.085994	0.547853	9749.001953
7000.841251	0.086060	0.547853	9842.720703
7000.842196	0.085880	0.547853	9923.876953
7000.843059	0.086049	0.547853	9998.136719
7000.844091	0.086085	0.547853	10086.976562
7000.845113	0.085942	0.547853	10174.809570
7000.845999	0.085924	0.547853	10250.938477
7000.846944	0.085986	0.547853	10332.195312
7001.871831	1.064473	0.555458	481.141663
7001.872712	1.513447	0.555458	1814.488525
7001.873575	1.506742	0.555458	3114.806641
7001.874670	1.462826	0.555458	4716.601074
7001.875594	1.424678	0.555458	6033.003418
7001.876473	1.389932	0.555458	7254.753418
7001.877461	1.353636	0.555458	8592.146484
7001.878468	0.908258	0.555458	9506.762695
7001.879350	0.106113	0.555458	9600.354492
7001.880323	0.085939	0.555458	9683.972656
7001.881381	0.085961	0.555458	9774.918945
7001.882285	0.085935	0.555458	9852.604492
7001.883142	0.085957	0.555458	9926.269531
7001.884197	0.086027	0.555458	10017.027344
7001.885203	0.085968	0.555458	10103.510742
7001.886095	0.085906	0.555458	10180.138672
7001.887081	0.086049	0.555458	10264.982422
7001.888135	0.085990	0.555458	10355.616211
7002.888641	1.028881	0.556163	440.360901
7002.889511	1.511070	0.556163	1754.992187
7002.890553	1.501824	0.556163	3319.892578
7002.891588	1.458992	0.556163	4829.949219
7002.892483	1.422653	0.556163	6103.223145
7002.893441	1.385566	0.556163	7430.595703
7002.894511	1.345184	0.556163	8869.943359
7002.895449	0.706190	0.556163	9532.349609
7002.896373	0.091003	0.556163	9616.436523
7002.897248	0.085924	0.556163	9691.620117
7002.898197	0.086049	0.556163	9773.280273
7002.899123	0.085946	0.556163	9852.866211
7002.900043	0.085994	0.556163	9931.980469
7002.900904	0.086085	0.556163	10006.099609
7002.901837	0.085924	0.556163	10086.266602
7002.902784	0.085946	0.556163	10167.657227
7002.903673	0.085917	0.556163	10244.037109
7002.904643	0.086030	0.556163	10327.486328
7003.927090	1.132489	0.555571	601.351624
7003.928120	1.520526	0.555571	2167.493408
7003.929015	1.497770	0.555571	3507.997559
7003.929975	1.457626	0.555571	4907.318359
7003.931024	1.414523	0.555571	6391.152344
7003.931961	1.378528	0.555571	7682.833008
7003.932827	1.345488	0.555571	8848.025391
7003.933909	0.587435	0.555571	9483.630859
7003.934916	0.087107	0.555571	9571.347656
7003.935792	0.085957	0.555571	9646.646484
7003.936773	0.086063	0.555571	9731.074219
7003.937819	0.085983	0.555571	9821.011719
7003.938714	0.085979	0.555571	9897.962891
7003.939585	0.085986	0.555571	9972.857422
7003.940629	0.086074	0.555571	10062.718750
7003.941632	0.085920	0.555571	10148.896484
7003.942519	0.085994	0.555571	10225.172852
7003.943497	0.086067	0.555571	10309.346680
7004.947485	1.109747	0.568965	569.300354
7004.948435	1.518787	0.568965	2012.147461
7004.949297	1.502245	0.568965	3307.082520
7004.950336	1.458560	0.568965	4822.525879
7004.951382	1.417104	0.568965	6304.817383
7004.952270	1.381974	0.568965	7532.010254
7004.953237	1.346243	0.568965	8833.827148
7004.954312	0.581367	0.568965	9458.796875
7004.955234	0.087927	0.568965	9539.866211
7004.956097	0.085964	0.568965	9614.053711
7004.957166	0.086115	0.568965	9706.110352
7004.958153	0.085895	0.568965	9790.888672
7004.959037	0.085946	0.568965	9866.865234
7004.960001	0.086147	0.568965	9949.911133
7004.961054	0.086027	0.568965	10040.497070
7004.961975	0.086027	0.568965	10119.727539
7004.962835	0.086030	0.568965	10193.713867
7004.963916	0.086071	0.568965	10286.755859
7005.983680	1.044031	0.563317	446.845184
7005.984721	1.518867	0.563317	2027.986084
7005.985618	1.501307	0.563317	3374.658691
7005.986499	1.464324	0.563317	4664.727539
7005.987516	1.423989	0.563317	6112.924805
7005.988453	1.385973	0.563317	7411.581543
7005.989382	1.351263	0.563317	8666.905273
7005.990246	0.987957	0.563317	9520.500000
7005.991275	0.101349	0.563317	9624.788086
7005.992176	0.086008	0.563317	9702.281250
7005.993050	0.085898	0.563317	9777.356445
7005.993983	0.085968	0.563317	9857.564453
7005.994952	0.085961	0.563317	9940.860352
7005.995874	0.086078	0.563317	10020.224609
7005.996743	0.086034	0.563317	10094.988281
7005.997782	0.086082	0.563317	10184.426758
7005.998676	0.086041	0.563317	10261.347656
7005.999545	0.085975	0.563317	10336.060547
7007.005622	1.020956	0.576865	429.822388
7007.006628	1.513799	0.576865	1952.703979
7007.007694	1.496807	0.576865	3548.299805
7007.008589	1.458347	0.576865	4853.520508
7007.009485	1.421096	0.576865	6126.822754
7007.010574	1.379418	0.576865	7629.008789
7007.011544	1.343566	0.576865	8932.267578
7007.012417	0.741724	0.576865	9579.791992
7007.013464	0.089857	0.576865	9673.872070
7007.014480	0.086060	0.576865	9761.308594
7007.015365	0.086074	0.576865	9837.484375
7007.016298	0.086169	0.576865	9917.880859
7007.017342	0.086100	0.576865	10007.769531
7007.018273	0.086005	0.576865	10087.839844
7007.019136	0.086071	0.576865	10162.119141
7007.020194	0.086082	0.576865	10253.193359
7007.021224	0.085983	0.576865	10341.755859
7007.022091	0.085935	0.576865	10416.261719
7008.039385	1.050919	0.569670	479.219147
7008.040479	1.518915	0.569670	2140.912109
7008.041438	1.495477	0.569670	3575.074707
7008.042306	1.458728	0.569670	4841.250488
7008.043366	1.415779	0.569670	6341.976074
7008.044401	1.376023	0.569670	7766.159668
7008.045299	1.342372	0.569670	8971.609375
7008.046249	0.641561	0.569670	9581.092773
7008.047287	0.087627	0.569670	9672.049805
7008.048207	0.085833	0.569670	9751.015625
7008.049065	0.086019	0.569670	9824.820312
7008.050113	0.086045	0.569670	9914.995117
7008.051132	0.085917	0.569670	10002.543945
7008.052000	0.085946	0.569670	10077.145508
7008.052958	0.085968	0.569670	10159.502930
7008.053999	0.086023	0.569670	10249.052734
7008.054912	0.085983	0.569670	10327.554687
7008.055783	0.086082	0.569670	10402.531250
7009.063964	1.110414	0.583391	570.752686
7009.064875	1.518010	0.583391	1953.660034
7009.065737	1.503054	0.583391	3249.292969
7009.066824	1.459109	0.583391	4835.344238
7009.067825	1.418265	0.583391	6255.027832
7009.068708	1.383746	0.583391	7476.875977
7009.069709	1.346814	0.583391	8825.037109
7009.070768	0.628184	0.583391	9490.283203
7009.071648	0.089150	0.583391	9568.735352
7009.072519	0.085990	0.583391	9643.632812
7009.073600	0.086089	0.583391	9736.695312
7009.074574	0.085964	0.583391	9820.424805
7009.075436	0.085950	0.583391	9894.513672
7009.076489	0.086052	0.583391	9985.126953
7009.077538	0.086030	0.583391	10075.373047
7009.078425	0.085917	0.583391	10151.581055
7009.079346	0.086060	0.583391	10230.841797
7009.080407	0.086052	0.583391	10322.143555
7010.096056	1.022369	0.577505	432.462250
7010.097036	1.511924	0.577505	1914.147583
7010.097985	1.501816	0.577505	3339.371338
7010.098910	1.463379	0.577505	4692.997070
7010.099778	1.427263	0.577505	5931.861328
7010.100812	1.387302	0.577505	7366.332031
7010.101698	1.353805	0.577505	8565.802734
7010.102578	1.081055	0.577505	9517.130859
7010.103539	0.138962	0.577505	9650.673828
7010.104530	0.085880	0.577505	9735.781250
7010.105446	0.085968	0.577505	9814.528320
7010.106313	0.086082	0.577505	9889.161133
7010.107342	0.086034	0.577505	9977.690430
7010.108248	0.085920	0.577505	10055.534180
7010.109121	0.085825	0.577505	10130.459961
7010.109984	0.086034	0.577505	10204.707031
7010.111029	0.085990	0.577505	10294.566406
7010.111918	0.085990	0.577505	10371.011719
7011.121592	1.020421	0.585759	427.556458
7011.122539	1.509968	0.585759	1857.496338
7011.123596	1.498817	0.585759	3441.746094
7011.124536	1.459460	0.585759	4813.638672
7011.125402	1.423828	0.585759	6046.673828
7011.126463	1.382769	0.585759	7513.791504
7011.127481	1.344738	0.585759	8882.734375
7011.128374	0.773500	0.585759	9573.469727
7011.129354	0.095317	0.585759	9666.880859
7011.130397	0.086074	0.585759	9756.656250
7011.131310	0.086019	0.585759	9835.191406
7011.132165	0.086023	0.585759	9908.741211
7011.133237	0.086001	0.585759	10000.934570
7011.134234	0.085931	0.585759	10086.608398
7011.135104	0.085906	0.585759	10161.346680
7011.136068	0.086122	0.585759	10244.368164
7011.137117	0.086085	0.585759	10334.671875
7011.138018	0.085895	0.585759	10412.063477
7012.153395	1.127750	0.579842	596.579895
7012.154341	1.519398	0.579842	2033.930420
7012.155206	1.501897	0.579842	3333.071289
7012.156254	1.458450	0.579842	4861.526367
7012.157279	1.417071	0.579842	6314.024414
7012.158166	1.382201	0.579842	7540.036621
7012.159114	1.346997	0.579842	8816.990234
7012.160188	0.611331	0.579842	9473.559570
7012.161122	0.088348	0.579842	9556.077148
7012.161976	0.085928	0.579842	9629.458984
7012.163037	0.086067	0.579842	9720.776367
7012.164060	0.086041	0.579842	9808.796875
7012.164930	0.085833	0.579842	9883.470703
7012.165875	0.086049	0.579842	9964.786133
7012.166936	0.086052	0.579842	10056.087891
7012.167861	0.085902	0.579842	10135.546875
7012.168727	0.086067	0.579842	10210.081055
7012.169812	0.086027	0.579842	10303.419922
7013.179939	1.109623	0.590420	569.236511
7013.180897	1.519340	0.590420	2024.763916
7013.181766	1.502073	0.590420	3330.064941
7013.182817	1.458413	0.590420	4862.856934
7013.183862	1.416302	0.590420	6342.893066
7013.184744	1.381285	0.590420	7561.186523
7013.185676	1.346367	0.590420	8816.000977
7013.186746	0.602509	0.590420	9460.685547
7013.187673	0.088184	0.590420	9542.431641
7013.188538	0.085917	0.590420	9616.750000
7013.189570	0.086078	0.590420	9705.582031
7013.190583	0.086041	0.590420	9792.742187
7013.191473	0.086071	0.590420	9869.344727
7013.192419	0.086125	0.590420	9950.819336
7013.193473	0.086067	0.590420	10041.534180
7013.194405	0.085891	0.590420	10121.584961
7013.195272	0.086067	0.590420	10196.205078
7013.196341	0.086129	0.590420	10288.277344
7014.208954	1.025698	0.595568	435.921722
7014.209935	1.511246	0.595568	1918.454346
7014.210901	1.500978	0.595568	3368.398926
7014.211820	1.462577	0.595568	4712.507324
7014.212691	1.426707	0.595568	5955.168945
7014.213728	1.386683	0.595568	7393.159668
7014.214614	1.353018	0.595568	8591.933594
7014.215487	1.068358	0.595568	9524.610352
7014.216411	0.136604	0.595568	9650.832031
7014.217398	0.085880	0.595568	9735.595703
7014.218314	0.085906	0.595568	9814.285156
7014.219183	0.085986	0.595568	9889.006836
7014.220260	0.086052	0.595568	9981.685547
7014.221170	0.085968	0.595568	10059.916016
7014.222037	0.085972	0.595568	10134.453125
7014.222896	0.086147	0.595568	10208.454102
7014.223939	0.086016	0.595568	10298.167969
7014.224817	0.086034	0.595568	10373.706055
7015.237089	1.069731	0.600495	495.285614
7015.237971	1.513927	0.600495	1830.569214
7015.238949	1.502772	0.600495	3300.280273
7015.240018	1.458340	0.600495	4859.245605
7015.240939	1.420917	0.600495	6167.910156
7015.241809	1.385383	0.600495	7373.193359
7015.242909	1.345356	0.600495	8853.085937
7015.243904	0.649274	0.600495	9499.113281
7015.244791	0.090249	0.600495	9579.164062
7015.245779	0.086045	0.600495	9664.176758
7015.246847	0.086023	0.600495	9756.048828
7015.247735	0.086063	0.600495	9832.472656
7015.248596	0.086056	0.600495	9906.566406
7015.249689	0.086104	0.600495	10000.677734
7015.250646	0.085939	0.600495	10082.920898
7015.251505	0.085913	0.600495	10156.720703
7015.252585	0.086012	0.600495	10249.613281
7015.253617	0.086082	0.600495	10338.449219
7016.265786	1.144816	0.597478	626.214172
7016.266822	1.520208	0.597478	2201.149170
7016.267717	1.496385	0.597478	3540.414062
7016.268640	1.457556	0.597478	4885.738281
7016.269715	1.414475	0.597478	6406.298828
7016.270651	1.377902	0.597478	7696.014648
7016.271523	1.345126	0.597478	8868.964844
7016.272587	0.577592	0.597478	9483.522461
7016.273608	0.086975	0.597478	9572.324219
7016.274498	0.086008	0.597478	9648.872070
7016.275455	0.085994	0.597478	9731.167969
7016.276495	0.086085	0.597478	9820.696289
7016.277423	0.086038	0.597478	9900.539062
7016.278285	0.085964	0.597478	9974.640625
7016.279346	0.086100	0.597478	10065.992187
7016.280350	0.085917	0.597478	10152.252930
7016.281224	0.085972	0.597478	10227.392578
7016.282203	0.086195	0.597478	10311.777344
7017.294776	1.022292	0.599798	432.429718
7017.295835	1.516238	0.599798	2038.125610
7017.296866	1.495540	0.599798	3580.026855
7017.297737	1.458439	0.599798	4850.327148
7017.298694	1.419628	0.599798	6208.910645
7017.299768	1.378030	0.599798	7688.914551
7017.300689	1.343372	0.599798	8926.160156
7017.301566	0.727584	0.599798	9564.251953
7017.302649	0.088502	0.599798	9660.099609
7017.303649	0.085887	0.599798	9745.987305
7017.304539	0.085950	0.599798	9822.482422
7017.305518	0.085979	0.599798	9906.656250
7017.306566	0.085968	0.599798	9996.750977
7017.307465	0.085957	0.599798	10074.026367
7017.308328	0.086027	0.599798	10148.267578
7017.309427	0.086096	0.599798	10242.887695
7017.310394	0.085979	0.599798	10326.029297
7017.311270	0.085847	0.599798	10401.231445
7018.323026	1.162375	0.598747	669.528259
7018.323963	1.519962	0.598747	2093.732666
7018.324841	1.500260	0.598747	3410.960937
7018.325848	1.458684	0.598747	4879.855957
7018.326855	1.417244	0.598747	6307.020508
7018.327740	1.382567	0.598747	7530.592285
7018.328601	1.349407	0.598747	8692.431641
7018.329695	0.726251	0.598747	9486.950195
7018.330594	0.091300	0.598747	9569.029297
7018.331473	0.085840	0.598747	9644.482422
7018.332442	0.086129	0.598747	9727.941406
7018.333458	0.085961	0.598747	9815.277344
7018.334341	0.085924	0.598747	9891.148437
7018.335200	0.085990	0.598747	9965.013672
7018.336279	0.086082	0.598747	10057.895508
7018.337212	0.085895	0.598747	10138.035156
7018.338090	0.085957	0.598747	10213.505859
7018.339056	0.086133	0.598747	10296.709961
7019.351478	1.041614	0.601925	438.519409
7019.352591	1.517966	0.601925	2128.016113
7019.353556	1.496162	0.601925	3571.812500
7019.354416	1.459607	0.601925	4827.074219
7019.355490	1.416387	0.601925	6348.273437
7019.356531	1.376462	0.601925	7781.170898
7019.357404	1.342837	0.601925	8953.467773
7019.358325	0.677655	0.601925	9577.587891
7019.359405	0.087645	0.601925	9672.245117
7019.360351	0.085983	0.601925	9753.584961
7019.361222	0.086060	0.601925	9828.542969
7019.362244	0.086213	0.601925	9916.653320
7019.363270	0.086019	0.601925	10004.909180
7019.364167	0.086093	0.601925	10082.133789
7019.365116	0.086100	0.601925	10163.842773
7019.366165	0.086151	0.601925	10254.214844
7019.367094	0.086019	0.601925	10334.126953
7019.367957	0.086133	0.601925	10408.459961
7020.380104	1.052098	0.602795	453.454407
7020.380989	1.512810	0.602795	1792.291260
7020.381986	1.502933	0.602795	3290.715820
7020.383039	1.459490	0.602795	4827.558594
7020.383933	1.422565	0.602795	6099.331543
7020.384847	1.386453	0.602795	7366.549316
7020.385941	1.345734	0.602795	8838.782227
7020.386893	0.729016	0.602795	9532.805664
7020.387761	0.093274	0.602795	9613.767578
7020.388809	0.086096	0.602795	9703.996094
7020.389822	0.086056	0.602795	9791.170898
7020.390713	0.085891	0.602795	9867.700195
7020.391655	0.086093	0.602795	9948.799805
7020.392692	0.085964	0.602795	10037.945312
7020.393618	0.085895	0.602795	10117.483398
7020.394477	0.086008	0.602795	10191.364258
7020.395513	0.086144	0.602795	10280.609375
7020.396537	0.085924	0.602795	10368.595703
7021.409302	1.102738	0.601147	561.293640
7021.410231	1.518076	0.601147	1971.586182
7021.411091	1.502952	0.601147	3264.124512
7021.412155	1.459548	0.601147	4817.083984
7021.413167	1.418441	0.601147	6252.546387
7021.414043	1.383790	0.601147	7464.746582
7021.415020	1.347400	0.601147	8781.156250
7021.416078	0.649753	0.601147	9468.595703
7021.416990	0.089304	0.601147	9550.041016
7021.417856	0.085931	0.601147	9624.458008
7021.418941	0.086078	0.601147	9717.852539
7021.419918	0.085898	0.601147	9801.775391
7021.420812	0.085909	0.601147	9878.578125
7021.421803	0.086056	0.601147	9963.859375
7021.422846	0.086023	0.601147	10053.581055
7021.423748	0.085924	0.601147	10131.084961
7021.424607	0.085931	0.601147	10204.900391
7021.425725	0.085990	0.601147	10301.037109
7022.437817	1.022150	0.606420	431.347168
7022.438819	1.512942	0.606420	1947.314941
7022.439823	1.498180	0.606420	3451.487793
7022.440720	1.460925	0.606420	4761.937500
7022.441585	1.424498	0.606420	5994.128418
7022.442685	1.382692	0.606420	7515.089355
7022.443607	1.347766	0.606420	8757.729492
7022.444490	0.904742	0.606420	9556.617187
7022.445487	0.102367	0.606420	9658.676758
7022.446490	0.085920	0.606420	9744.854492
7022.447385	0.086078	0.606420	9821.894531
7022.448249	0.086049	0.606420	9896.240234
7022.449337	0.086067	0.606420	9989.880859
7022.450242	0.085968	0.606420	10067.681641
7022.451109	0.085906	0.606420	10142.162109
7022.452109	0.085986	0.606420	10228.148437
7022.453110	0.085928	0.606420	10314.162109
7022.453981	0.085891	0.606420	10388.973633
7023.465481	1.093220	0.608024	546.610046
7023.466454	1.519332	0.608024	2024.920410
7023.467320	1.502146	0.608024	3325.778809
7023.468406	1.456622	0.608024	4907.670898
7023.469453	1.414541	0.608024	6388.695312
7023.470345	1.379575	0.608024	7619.276367
7023.471274	1.345140	0.608024	8868.912109
7023.472344	0.562507	0.608024	9470.794922
7023.473288	0.087345	0.608024	9553.249023
7023.474150	0.085909	0.608024	9627.302734
7023.475199	0.085986	0.608024	9717.501953
7023.476208	0.085876	0.608024	9804.151367
7023.477098	0.085906	0.608024	9880.607422
7023.478013	0.085887	0.608024	9959.194336
7023.478877	0.085972	0.608024	10033.473633
7023.479869	0.085913	0.608024	10118.699219
7023.480771	0.085902	0.608024	10196.182617
7023.481648	0.085994	0.608024	10271.598633
7024.495119	1.102295	0.612274	547.840576
7024.496137	1.519625	0.612274	2094.818848
7024.497031	1.499048	0.612274	3434.967773
7024.497995	1.458596	0.612274	4841.054687
7024.499066	1.415559	0.612274	6357.118164
7024.499991	1.379198	0.612274	7632.875977
7024.500856	1.345821	0.612274	8797.011719
7024.501937	0.612418	0.612274	9459.036133
7024.502923	0.087448	0.612274	9545.259766
7024.503806	0.086038	0.612274	9621.231445
7024.504810	0.086056	0.612274	9707.631836
7024.505859	0.085942	0.612274	9797.785156
7024.506749	0.086016	0.612274	9874.338867
7024.507605	0.085961	0.612274	9947.920898
7024.508701	0.086030	0.612274	10042.209961
7024.509665	0.085983	0.612274	10125.097656
7024.510533	0.085909	0.612274	10199.666992
7024.511518	0.086089	0.612274	10284.464844
7025.522187	1.098054	0.616153	554.517334
7025.523117	1.517783	0.616153	1966.055664
7025.523991	1.502413	0.616153	3279.165039
7025.525048	1.458820	0.616153	4821.137207
7025.526061	1.417815	0.616153	6257.383789
7025.526953	1.383010	0.616153	7491.028809
7025.527944	1.346371	0.616153	8825.282227
7025.529010	0.599623	0.616153	9464.480469
7025.529928	0.088246	0.616153	9545.490234
7025.530793	0.085924	0.616153	9619.814453
7025.531888	0.086056	0.616153	9714.045898
7025.532876	0.085884	0.616153	9798.899414
7025.533761	0.085931	0.616153	9874.948242
7025.534753	0.086100	0.616153	9960.359375
7025.535806	0.086012	0.616153	10050.929687
7025.536702	0.085990	0.616153	10127.976562
7025.537561	0.085906	0.616153	10201.769531
7025.538664	0.086060	0.616153	10296.693359
7026.553284	1.032865	0.620967	448.263367
7026.554148	1.510814	0.620967	1753.606934
7026.555201	1.501919	0.620967	3335.127441
7026.556168	1.461489	0.620967	4748.387695
7026.557046	1.425494	0.620967	5999.971680
7026.557915	1.389287	0.620967	7207.262207
7026.559031	1.350106	0.620967	8713.980469
7026.559918	0.930121	0.620967	9538.998047
7026.560786	0.109537	0.620967	9634.076172
7026.561834	0.085979	0.620967	9724.182617
7026.562805	0.085913	0.620967	9807.604492
7026.563687	0.085950	0.620967	9883.412109
7026.564544	0.085990	0.620967	9957.105469
7026.565649	0.086089	0.620967	10052.233398
7026.566556	0.085906	0.620967	10130.150391
7026.567435	0.086027	0.620967	10205.767578
7026.568444	0.086151	0.620967	10292.694336
7026.569426	0.085880	0.620967	10377.028320
7027.578392	1.109385	0.623915	573.551941
7027.579356	1.519369	0.623915	2038.223633
7027.580240	1.500725	0.623915	3364.864746
7027.581254	1.458746	0.623915	4844.033691
7027.582319	1.416072	0.623915	6352.150391
7027.583214	1.380579	0.623915	7587.768555
7027.584098	1.346290	0.623915	8777.889648
7027.585200	0.607614	0.623915	9447.479492
7027.586157	0.087762	0.623915	9531.467773
7027.587018	0.085917	0.623915	9605.442383
7027.588078	0.086118	0.623915	9696.727539
7027.589096	0.086041	0.623915	9784.317383
7027.589981	0.085983	0.623915	9860.412109
7027.590941	0.086122	0.623915	9943.088867
7027.591983	0.086038	0.623915	10032.740234
7027.592911	0.085990	0.623915	10112.539062
7027.593767	0.086001	0.623915	10186.156250
7027.594823	0.086060	0.623915	10277.035156
7028.612574	1.066062	0.616713	479.727875
7028.613447	1.513253	0.616713	1800.797852
7028.614448	1.501989	0.616713	3304.288330
7028.615506	1.458699	0.616713	4847.591797
7028.616400	1.421832	0.616713	6118.709961
7028.617268	1.385772	0.616713	7321.559570
7028.618379	1.345759	0.616713	8816.698242
7028.619359	0.712097	0.616713	9514.553711
7028.620226	0.092688	0.616713	9594.914062
7028.621257	0.086008	0.616713	9683.588867
7028.622301	0.086016	0.616713	9773.389648
7028.623192	0.086016	0.616713	9850.029297
7028.624125	0.086060	0.616713	9930.323242
7028.625180	0.086034	0.616713	10021.088867
7028.626126	0.085975	0.616713	10102.421875
7028.626992	0.086027	0.616713	10176.920898
7028.628045	0.086206	0.616713	10267.696289
7028.629053	0.086038	0.616713	10354.421875
7029.633473	1.026130	0.633338	436.105377
7029.634497	1.515417	0.633338	1987.892822
7029.635539	1.496228	0.633338	3546.962402
7029.636423	1.458849	0.633338	4836.584961
7029.637379	1.420492	0.633338	6194.575195
7029.638437	1.379048	0.633338	7653.607910
7029.639374	1.343958	0.633338	8912.896484
7029.640239	0.766095	0.633338	9575.568359
7029.641301	0.089952	0.633338	9671.097656
7029.642321	0.085902	0.633338	9758.717773
7029.643194	0.085990	0.633338	9833.787109
7029.644146	0.086100	0.633338	9915.753906
7029.645205	0.086111	0.633338	10006.945312
7029.646123	0.085990	0.633338	10085.883789
7029.646991	0.086085	0.633338	10160.605469
7029.648069	0.086019	0.633338	10253.333984
7029.649065	0.086052	0.633338	10339.041992
7029.649955	0.085895	0.633338	10415.488281
7030.670789	1.040339	0.627992	449.426605
7030.671659	1.511254	0.627992	1764.217407
7030.672651	1.503615	0.627992	3255.802979
7030.673577	1.465356	0.627992	4612.723145
7030.674445	1.429105	0.627992	5853.186523
7030.675486	1.388771	0.627992	7298.896973
7030.676373	1.355167	0.627992	8500.929687
7030.677245	1.141578	0.627992	9496.385742
7030.678206	0.156449	0.627992	9646.733398
7030.679162	0.085917	0.627992	9728.870117
7030.680079	0.086027	0.627992	9807.756836
7030.680955	0.085979	0.627992	9883.074219
7030.681976	0.086067	0.627992	9970.948242
7030.682877	0.085957	0.627992	10048.395508
7030.683748	0.085983	0.627992	10123.286133
7030.684605	0.086089	0.627992	10197.064453
7030.685650	0.085931	0.627992	10286.862305
7030.686529	0.086030	0.627992	10362.483398
7031.690168	1.035637	0.628270	437.038910
7031.691273	1.517695	0.628270	2114.092285
7031.692271	1.494294	0.628270	3605.397949
7031.693154	1.457435	0.628270	4892.313477
7031.694169	1.416731	0.628270	6330.295410
7031.695224	1.376078	0.628270	7782.057617
7031.696105	1.342584	0.628270	8964.874023
7031.696999	0.685272	0.628270	9577.507812
7031.698084	0.088213	0.628270	9673.218750
7031.699031	0.085950	0.628270	9754.613281
7031.699887	0.086027	0.628270	9828.251953
7031.700899	0.086122	0.628270	9915.407227
7031.701941	0.086038	0.628270	10005.058594
7031.702823	0.085979	0.628270	10080.891602
7031.703743	0.086085	0.628270	10160.089844
7031.704812	0.086122	0.628270	10252.154297
7031.705755	0.086019	0.628270	10333.270508
7031.706623	0.085983	0.628270	10407.903320
7032.729039	1.044877	0.629354	460.790619
7032.729906	1.511693	0.629354	1771.428589
7032.730961	1.501337	0.629354	3355.338867
7032.731982	1.458717	0.629354	4844.688965
7032.732859	1.422927	0.629354	6092.596191
7032.733821	1.385167	0.629354	7425.126953
7032.734883	1.345488	0.629354	8854.035156
7032.735800	0.752011	0.629354	9543.628906
7032.736666	0.094603	0.629354	9625.555664
7032.737735	0.086008	0.629354	9717.499023
7032.738736	0.085994	0.629354	9803.579102
7032.739629	0.085898	0.629354	9880.286133
7032.740598	0.086005	0.629354	9963.625000
7032.741650	0.086030	0.629354	10054.128906
7032.742565	0.085946	0.629354	10132.769531
7032.743429	0.086008	0.629354	10207.081055
7032.744518	0.086082	0.629354	10300.824219
7032.745505	0.085946	0.629354	10385.653320
7033.747382	1.026464	0.612785	430.088257
7033.748419	1.517223	0.612785	2003.448364
7033.749330	1.500927	0.612785	3370.792480
7033.750209	1.463943	0.612785	4657.598145
7033.751151	1.425831	0.612785	6000.731445
7033.752133	1.387079	0.612785	7362.842773
7033.753058	1.352377	0.612785	8613.791016
7033.753927	1.062707	0.612785	9537.284180
7033.754965	0.111896	0.612785	9653.431641
7033.755858	0.085811	0.612785	9730.060547
7033.756734	0.085902	0.612785	9805.310547
7033.757589	0.085887	0.612785	9878.744141
7033.758631	0.085972	0.612785	9968.326172
7033.759523	0.085920	0.612785	10044.966797
7033.760399	0.085917	0.612785	10120.229492
7033.761381	0.086012	0.612785	10204.693359
7033.762324	0.085869	0.612785	10285.667969
7033.763246	0.085994	0.612785	10364.954102
7034.788347	1.084050	0.614699	525.764404
7034.789224	1.515337	0.614699	1854.714844
7034.790169	1.503494	0.614699	3275.516357
7034.791232	1.458893	0.614699	4826.319336
7034.792171	1.420942	0.614699	6160.583984
7034.793041	1.386229	0.614699	7366.603516
7034.794097	1.346884	0.614699	8788.912109
7034.795116	0.688901	0.614699	9490.902344
7034.796008	0.090992	0.614699	9572.067383
7034.796966	0.085953	0.614699	9654.411133
7034.798017	0.085953	0.614699	9744.748047
7034.798949	0.085972	0.614699	9824.874023
7034.799813	0.086078	0.614699	9899.245117
7034.800878	0.086173	0.614699	9991.019531
7034.801876	0.085964	0.614699	10076.811523
7034.802753	0.086001	0.614699	10152.234375
7034.803742	0.086096	0.614699	10237.383789
7034.804785	0.086082	0.614699	10327.166992
7035.802553	1.022194	0.600237	430.343536
7035.803501	1.510463	0.600237	1862.262085
7035.804558	1.498729	0.600237	3446.418945
7035.805482	1.459790	0.600237	4795.264648
7035.806355	1.423308	0.600237	6037.812500
7035.807436	1.382058	0.600237	7531.817383
7035.808436	1.344683	0.600237	8876.500000
7035.809317	0.800999	0.600237	9582.179687
7035.810291	0.096672	0.600237	9676.338867
7035.811350	0.086012	0.600237	9767.425781
7035.812250	0.086096	0.600237	9844.912109
7035.813108	0.086008	0.600237	9918.707031
7035.814168	0.086078	0.600237	10009.949219
7035.815159	0.085957	0.600237	10095.132812
7035.816049	0.085964	0.600237	10171.640625
7035.817044	0.086136	0.600237	10257.346680
7035.818099	0.086082	0.600237	10348.163086
7035.818996	0.085986	0.600237	10425.292969
7036.845006	1.055354	0.600829	468.577179
7036.845884	1.512865	0.600829	1796.872559
7036.846750	1.506211	0.600829	3101.251221
7036.847846	1.462584	0.600829	4704.243164
7036.848776	1.424601	0.600829	6029.122070
7036.849656	1.389965	0.600829	7252.291016
7036.850628	1.353644	0.600829	8568.033203
7036.851639	0.925778	0.600829	9503.994141
7036.852531	0.105765	0.600829	9598.336914
7036.853389	0.086027	0.600829	9672.147461
7036.854473	0.086115	0.600829	9765.495117
7036.855382	0.085972	0.600829	9843.643555
7036.856255	0.086001	0.600829	9918.722656
7036.857240	0.086188	0.600829	10003.617187
7036.858263	0.086041	0.600829	10091.637695
7036.859139	0.085917	0.600829	10166.900391
7036.860094	0.086096	0.600829	10249.122070
7036.861154	0.086158	0.600829	10340.450195
7037.860383	1.109282	0.590738	569.061768
7037.861409	1.519878	0.590738	2128.456543
7037.862305	1.498044	0.590738	3470.704346
7037.863257	1.458431	0.590738	4859.130859
7037.864324	1.414896	0.590738	6368.825195
7037.865267	1.378348	0.590738	7668.607910
7037.866138	1.345159	0.590738	8840.241211
7037.867198	0.597166	0.590738	9473.236328
7037.868183	0.087319	0.590738	9559.246094
7037.869064	0.085961	0.590738	9634.977539
7037.870043	0.086052	0.590738	9719.222656
7037.871086	0.085979	0.590738	9808.898437
7037.872000	0.085865	0.590738	9887.379883
7037.872857	0.085935	0.590738	9961.026367
7037.873928	0.086001	0.590738	10053.133789
7037.874925	0.085931	0.590738	10138.807617
7037.875793	0.085994	0.590738	10213.450195
7037.876775	0.086089	0.590738	10297.989258
7038.902715	1.036018	0.583185	441.343689
7038.903788	1.517406	0.583185	2069.520508
7038.904790	1.495697	0.583185	3568.208984
7038.905668	1.458417	0.583185	4848.698730
7038.906642	1.419097	0.583185	6230.898926
7038.907715	1.377718	0.583185	7709.190918
7038.908617	1.343562	0.583185	8921.083984
7038.909502	0.715730	0.583185	9554.504883
7038.910591	0.088326	0.583185	9650.692383
7038.911556	0.085942	0.583185	9733.626953
7038.912437	0.086071	0.583185	9809.455078
7038.913435	0.086056	0.583185	9895.338867
7038.914482	0.085961	0.583185	9985.339844
7038.915366	0.085979	0.583185	10061.345703
7038.916235	0.086001	0.583185	10136.080078
7038.917327	0.086001	0.583185	10229.993164
7038.918291	0.085854	0.583185	10312.756836
7038.919156	0.085865	0.583185	10387.030273
7039.916615	1.134078	0.593884	640.754272
7039.917662	1.520112	0.593884	2232.311768
7039.918562	1.495129	0.593884	3577.928223
7039.919427	1.456996	0.593884	4838.229492
7039.920537	1.414080	0.593884	6407.857910
7039.921501	1.376572	0.593884	7734.873535
7039.922362	1.344236	0.593884	8892.260742
7039.923430	0.557677	0.593884	9487.859375
7039.924474	0.086777	0.593884	9578.455078
7039.925345	0.085946	0.593884	9653.314453
7039.926255	0.086012	0.593884	9731.584961
7039.927324	0.085990	0.593884	9823.507812
7039.928270	0.085946	0.593884	9904.812500
7039.929138	0.085913	0.593884	9979.384766
7039.930160	0.086151	0.593884	10067.431641
7039.931187	0.085957	0.593884	10155.709961
7039.932074	0.086019	0.593884	10232.008789
7039.932998	0.085979	0.593884	10311.453125
7040.958409	1.040339	0.583689	451.507263
7040.959281	1.511569	0.583689	1769.594971
7040.960139	1.507233	0.583689	3062.800537
7040.961201	1.465170	0.583689	4618.810547
7040.962091	1.428472	0.583689	5890.150391
7040.962970	1.393674	0.583689	7115.189941
7040.963952	1.357244	0.583689	8448.002930
7040.964907	1.078656	0.583689	9478.119141
7040.965834	0.128511	0.583689	9597.249023
7040.966704	0.085950	0.583689	9672.025391
7040.967723	0.085950	0.583689	9759.608398
7040.968617	0.085920	0.583689	9836.420898
7040.969495	0.086063	0.583689	9911.984375
7040.970427	0.086071	0.583689	9992.202148
7040.971416	0.086027	0.583689	10077.282227
7040.972333	0.085902	0.583689	10156.054687
7040.973190	0.085964	0.583689	10229.726562
7040.974257	0.086027	0.583689	10321.516602
7041.973775	1.100918	0.601079	555.963562
7041.974715	1.518651	0.601079	1983.495605
7041.975582	1.503069	0.601079	3286.656250
7041.976615	1.459900	0.601079	4794.732910
7041.977654	1.418005	0.601079	6268.040527
7041.978553	1.382578	0.601079	7510.978027
7041.979512	1.347308	0.601079	8803.046875
7041.980592	0.612609	0.601079	9464.664062
7041.981521	0.088301	0.601079	9546.695312
7041.982381	0.086085	0.601079	9620.728516
7041.983466	0.086257	0.601079	9714.317383
7041.984465	0.085994	0.601079	9800.224609
7041.985353	0.086041	0.601079	9876.628906
7041.986337	0.086162	0.601079	9961.412109
7041.987382	0.086052	0.601079	10051.336914
7041.988284	0.086067	0.601079	10128.969727
7041.989142	0.086125	0.601079	10202.865234
7041.990218	0.086199	0.601079	10295.615234
7043.015601	1.025413	0.582794	430.673340
7043.016651	1.517146	0.582794	2023.676636
7043.017676	1.495701	0.582794	3556.769775
7043.018573	1.458300	0.582794	4864.864258
7043.019548	1.418829	0.582794	6248.222656
7043.020606	1.377704	0.582794	7705.833008
7043.021522	1.343372	0.582794	8936.361328
7043.022391	0.723867	0.582794	9565.402344
7043.023490	0.088275	0.582794	9662.416992
7043.024480	0.086012	0.582794	9747.568359
7043.025369	0.085924	0.582794	9823.955078
7043.026355	0.086089	0.582794	9908.838867
7043.027415	0.086155	0.582794	10000.163086
7043.028300	0.086074	0.582794	10076.338867
7043.029161	0.086030	0.582794	10150.411133
7043.030242	0.086034	0.582794	10243.414062
7043.031204	0.085953	0.582794	10326.101562
7043.032062	0.085873	0.582794	10399.780273
7044.030942	1.064150	0.607528	482.060089
7044.031827	1.513557	0.607528	1821.558105
7044.032706	1.507071	0.607528	3146.273926
7044.033713	1.465715	0.607528	4622.249023
7044.034660	1.426443	0.607528	5973.090332
7044.035578	1.390397	0.607528	7249.474609
7044.036438	1.356801	0.607528	8416.323242
7044.037467	1.009219	0.607528	9454.809570
7044.038374	0.120835	0.607528	9564.407227
7044.039248	0.085920	0.607528	9639.501953
7044.040187	0.086093	0.607528	9720.342773
7044.041158	0.085997	0.607528	9803.845703
7044.042073	0.086038	0.607528	9882.570312
7044.042944	0.085975	0.607528	9957.455078
7044.043983	0.086089	0.607528	10046.901367
7044.044872	0.085972	0.607528	10123.330078
7044.045741	0.085975	0.607528	10198.042969
7044.046606	0.086166	0.607528	10272.576172
7045.071812	1.034282	0.580518	444.741364
7045.072833	1.514886	0.580518	1991.440430
7045.073889	1.496246	0.580518	3571.476562
7045.074784	1.457911	0.580518	4876.307129
7045.075670	1.420770	0.580518	6135.109375
7045.076768	1.379033	0.580518	7649.288086
7045.077720	1.343712	0.580518	8928.501953
7045.078593	0.749026	0.580518	9582.401367
7045.079636	0.090249	0.580518	9676.531250
7045.080661	0.086100	0.580518	9764.783203
7045.081535	0.086166	0.580518	9840.091797
7045.082460	0.086093	0.580518	9919.727539
7045.083531	0.086111	0.580518	10011.952148
7045.084452	0.086100	0.580518	10091.250000
7045.085320	0.086071	0.580518	10165.958984
7045.086349	0.086067	0.580518	10254.521484
7045.087369	0.086052	0.580518	10342.294922
7045.088256	0.086082	0.580518	10418.649414
7046.088633	1.034597	0.614554	439.703796
7046.089725	1.518032	0.614554	2097.395020
7046.090727	1.494686	0.614554	3595.070801
7046.091615	1.457600	0.614554	4889.419434
7046.092600	1.418188	0.614554	6286.334961
7046.093646	1.377400	0.614554	7727.095215
7046.094548	1.343225	0.614554	8938.684570
7046.095415	0.737329	0.614554	9577.949219
7046.096510	0.088971	0.614554	9675.372070
7046.097503	0.085990	0.614554	9760.759766
7046.098377	0.086016	0.614554	9835.937500
7046.099371	0.086071	0.614554	9921.491211
7046.100422	0.086111	0.614554	10011.994141
7046.101306	0.085902	0.614554	10087.931641
7046.102163	0.085964	0.614554	10161.603516
7046.103275	0.086147	0.614554	10257.399414
7046.104230	0.085946	0.614554	10339.477539
7046.105098	0.085953	0.614554	10414.084961
7047.129017	1.035915	0.575551	437.156342
7047.130090	1.517604	0.575551	2065.545166
7047.131024	1.498110	0.575551	3464.780273
7047.131899	1.461584	0.575551	4743.666504
7047.132881	1.422345	0.575551	6140.409180
7047.133894	1.381838	0.575551	7540.211426
7047.134784	1.348755	0.575551	8740.603516
7047.135653	0.924419	0.575551	9543.923828
7047.136744	0.093823	0.575551	9646.285156
7047.137684	0.085822	0.575551	9726.957031
7047.138558	0.085946	0.575551	9802.074219
7047.139526	0.085939	0.575551	9885.262695
7047.140540	0.085858	0.575551	9972.323242
7047.141419	0.085906	0.575551	10047.833984
7047.142275	0.085968	0.575551	10121.422852
7047.143325	0.086005	0.575551	10211.727539
7047.144260	0.085858	0.575551	10292.004883
7047.145125	0.085928	0.575551	10366.332031
7048.146444	1.095872	0.614807	551.223389
7048.147388	1.518424	0.614807	1984.615845
7048.148257	1.503179	0.614807	3290.878174
7048.149294	1.459739	0.614807	4804.626953
7048.150342	1.417544	0.614807	6290.212891
7048.151242	1.381871	0.614807	7533.896973
7048.152190	1.347092	0.614807	8810.940430
7048.153244	0.631597	0.614807	9476.643555
7048.154183	0.088649	0.614807	9559.884766
7048.155041	0.086045	0.614807	9633.710937
7048.156109	0.086118	0.614807	9725.685547
7048.157112	0.085913	0.614807	9811.856445
7048.157989	0.085913	0.614807	9887.202148
7048.158969	0.086041	0.614807	9971.522461
7048.160008	0.085961	0.614807	10060.835937
7048.160933	0.086041	0.614807	10140.423828
7048.161788	0.086019	0.614807	10213.970703
7048.162835	0.086140	0.614807	10304.159180
7049.185217	1.058500	0.582557	455.154877
7049.186335	1.518933	0.582557	2153.322021
7049.187297	1.495177	0.582557	3591.682373
7049.188169	1.458369	0.582557	4863.380371
7049.189209	1.416533	0.582557	6336.575195
7049.190245	1.376235	0.582557	7762.354980
7049.191144	1.342731	0.582557	8969.469727
7049.192096	0.655129	0.582557	9593.153320
7049.193140	0.087587	0.582557	9684.593750
7049.194087	0.085950	0.582557	9765.988281
7049.194949	0.086030	0.582557	9840.146484
7049.196009	0.086162	0.582557	9931.478516
7049.197014	0.085990	0.582557	10017.898437
7049.197892	0.085909	0.582557	10093.327148
7049.198870	0.086089	0.582557	10177.522461
7049.199919	0.086049	0.582557	10267.787109
7049.200830	0.085924	0.582557	10346.063477
7049.201688	0.085990	0.582557	10419.842773
7050.202670	1.117841	0.618598	606.987427
7050.203677	1.520574	0.618598	2138.205078
7050.204576	1.497861	0.618598	3484.782471
7050.205440	1.460259	0.618598	4746.446289
7050.206537	1.417412	0.618598	6301.347656
7050.207443	1.381432	0.618598	7552.924805
7050.208315	1.348953	0.618598	8729.211914
7050.209329	0.768768	0.618598	9508.743164
7050.210321	0.090436	0.618598	9598.455078
7050.211196	0.085994	0.618598	9673.699219
7050.212060	0.086111	0.618598	9748.098633
7050.213135	0.086056	0.618598	9840.608398
7050.214046	0.085913	0.618598	9918.875000
7050.214923	0.086052	0.618598	9994.342773
7050.215900	0.085994	0.618598	10078.358398
7050.216908	0.085953	0.618598	10164.999023
7050.217795	0.086082	0.618598	10241.353516
7050.218655	0.086125	0.618598	10315.421875
7051.243019	1.095828	0.575628	550.105469
7051.243929	1.517512	0.575628	1931.041626
7051.244797	1.503677	0.575628	3236.232910
7051.245868	1.459449	0.575628	4799.303223
7051.246874	1.418617	0.575628	6226.431641
7051.247773	1.383677	0.575628	7470.356934
7051.248766	1.347019	0.575628	8807.947266
7051.249832	0.621691	0.575628	9470.669922
7051.250738	0.088843	0.575628	9551.161133
7051.251597	0.085931	0.575628	9624.976562
7051.252698	0.086096	0.575628	9719.768555
7051.253663	0.085920	0.575628	9802.681641
7051.254543	0.085931	0.575628	9878.300781
7051.255562	0.086096	0.575628	9966.033203
7051.256594	0.085961	0.575628	10054.745117
7051.257482	0.085891	0.575628	10131.016602
7051.258354	0.085972	0.575628	10205.984375
7051.259436	0.086063	0.575628	10299.104492
7052.259886	1.126666	0.614223	602.766479
7052.260757	1.517358	0.614223	1924.385620
7052.261667	1.501637	0.614223	3290.875244
7052.262753	1.457303	0.614223	4873.506836
7052.263702	1.418807	0.614223	6219.955078
7052.264577	1.384376	0.614223	7431.284180
7052.265608	1.345990	0.614223	8819.000000
7052.266648	0.619537	0.614223	9463.318359
7052.267539	0.089392	0.614223	9542.966797
7052.268500	0.085950	0.614223	9625.564453
7052.269559	0.086027	0.614223	9716.666992
7052.270489	0.085909	0.614223	9796.562500
7052.271349	0.085920	0.614223	9870.454102
7052.272429	0.086038	0.614223	9963.375000
7052.273427	0.085887	0.614223	10049.090820
7052.274312	0.085935	0.614223	10125.143555
7052.275283	0.085972	0.614223	10208.622070
7052.276328	0.086023	0.614223	10298.515625
7053.300186	1.047612	0.565799	464.092255
7053.301064	1.513059	0.565799	1792.558105
7053.301951	1.505804	0.565799	3128.206543
7053.303050	1.462496	0.565799	4735.490234
7053.303935	1.425769	0.565799	5997.295898
7053.304802	1.391008	0.565799	7203.300293
7053.305863	1.351685	0.565799	8637.437500
7053.306850	0.888626	0.565799	9514.510742
7053.307712	0.103524	0.565799	9603.749023
7053.308570	0.085862	0.565799	9677.418945
7053.309688	0.086030	0.565799	9773.600586
7053.310592	0.085891	0.565799	9851.246094
7053.311456	0.085997	0.565799	9925.547852
7053.312510	0.086060	0.565799	10016.254883
7053.313481	0.086008	0.565799	10099.768555
7053.314363	0.085928	0.565799	10175.556641
7053.315220	0.086107	0.565799	10249.350586
7053.316322	0.086012	0.565799	10344.135742
7054.315544	1.104331	0.618260	553.269836
7054.316564	1.519647	0.618260	2103.310059
7054.317440	1.499256	0.618260	3416.658691
7054.318425	1.458289	0.618260	4853.072754
7054.319497	1.415017	0.618260	6369.971191
7054.320398	1.379579	0.618260	7612.971680
7054.321263	1.345939	0.618260	8777.208984
7054.322368	0.599711	0.618260	9439.889648
7054.323361	0.087111	0.618260	9526.390625
7054.324248	0.086005	0.618260	9602.676758
7054.325231	0.086158	0.618260	9687.370117
7054.326281	0.086074	0.618260	9777.748047
7054.327167	0.085972	0.618260	9853.918945
7054.328040	0.086104	0.618260	9929.086914
7054.329145	0.086210	0.618260	10024.348633
7054.330110	0.085983	0.618260	10107.322266
7054.330975	0.086005	0.618260	10181.715820
7054.332020	0.086049	0.618260	10271.636719
7055.357880	1.043265	0.564490	438.171509
7055.358984	1.518757	0.564490	2114.879639
7055.359959	1.495891	0.564490	3573.373535
7055.360833	1.458911	0.564490	4848.461914
7055.361942	1.414050	0.564490	6416.643555
7055.362966	1.374415	0.564490	7824.044922
7055.363863	1.340966	0.564490	9026.890625
7055.364819	0.598341	0.564490	9598.904297
7055.365872	0.086832	0.564490	9690.338867
7055.366805	0.085876	0.564490	9770.461914
7055.367667	0.086016	0.564490	9844.607422
7055.368714	0.086133	0.564490	9934.788086
7055.369728	0.085997	0.564490	10021.989258
7055.370603	0.085946	0.564490	10097.192383
7055.371597	0.086078	0.564490	10182.753906
7055.372641	0.086060	0.564490	10272.599609
7055.373552	0.086016	0.564490	10350.959961
7055.374408	0.086001	0.564490	10424.577148
7056.373203	1.036454	0.619734	460.185516
7056.374074	1.511909	0.619734	1777.058472
7056.374938	1.505654	0.619734	3077.943848
7056.376054	1.462236	0.619734	4709.799805
7056.376958	1.424667	0.619734	5997.698730
7056.377838	1.390294	0.619734	7221.157715
7056.378848	1.352640	0.619734	8587.324219
7056.379830	0.904028	0.619734	9475.080078
7056.380749	0.101832	0.619734	9568.664062
7056.381614	0.085862	0.619734	9642.934570
7056.382720	0.085975	0.619734	9738.023437
7056.383615	0.086027	0.619734	9815.017578
7056.384478	0.085884	0.619734	9889.135742
7056.385538	0.086140	0.619734	9980.444336
7056.386517	0.085906	0.619734	10064.545898
7056.387391	0.085975	0.619734	10139.688477
7056.388246	0.086049	0.619734	10213.259766
7056.389368	0.086001	0.619734	10309.752930
7057.414679	1.081198	0.571326	560.060303
7057.415743	1.519607	0.571326	2176.921875
7057.416679	1.494818	0.571326	3576.071777
7057.417544	1.457314	0.571326	4836.648926
7057.418634	1.414149	0.571326	6378.071289
7057.419631	1.375474	0.571326	7749.418457
7057.420534	1.342075	0.571326	8961.312500
7057.421528	0.561010	0.571326	9518.956055
7057.422575	0.086774	0.571326	9609.807617
7057.423480	0.085935	0.571326	9687.579102
7057.424340	0.085891	0.571326	9761.445312
7057.425414	0.086093	0.571326	9853.908203
7057.426374	0.085920	0.571326	9936.391602
7057.427245	0.085924	0.571326	10011.231445
7057.428248	0.086030	0.571326	10097.519531
7057.429298	0.085920	0.571326	10187.736328
7057.430176	0.085898	0.571326	10263.155273
7057.431039	0.085898	0.571326	10337.285156
7058.430392	1.023091	0.612068	430.721252
7058.431387	1.512114	0.612068	1935.274902
7058.432452	1.496561	0.612068	3529.112549
7058.433358	1.458069	0.612068	4850.123047
7058.434224	1.421547	0.612068	6081.182617
7058.435339	1.379425	0.612068	7619.241699
7058.436313	1.343383	0.612068	8927.696289
7058.437192	0.735857	0.612068	9574.514648
7058.438269	0.089125	0.612068	9670.501953
7058.439295	0.085990	0.612068	9758.727539
7058.440172	0.085847	0.612068	9834.015625
7058.441089	0.085994	0.612068	9912.872070
7058.442158	0.085968	0.612068	10004.771484
7058.443099	0.085822	0.612068	10085.529297
7058.443962	0.085946	0.612068	10159.701172
7058.445000	0.086008	0.612068	10248.977539
7058.446020	0.085902	0.612068	10336.597656
7058.446888	0.085884	0.612068	10411.144531
7059.471295	1.029540	0.579044	437.554382
7059.472290	1.513839	0.579044	1943.824219
7059.473211	1.501685	0.579044	3326.875732
7059.474132	1.463496	0.579044	4674.755859
7059.475001	1.426615	0.579044	5914.484375
7059.476060	1.386555	0.579044	7382.846191
7059.476946	1.352897	0.579044	8581.512695
7059.477821	1.075203	0.579044	9522.315430
7059.478816	0.132894	0.579044	9654.544922
7059.479733	0.085840	0.579044	9733.259766
7059.480647	0.085953	0.579044	9811.821289
7059.481519	0.085928	0.579044	9886.750000
7059.482553	0.085920	0.579044	9975.591797
7059.483445	0.085887	0.579044	10052.203125
7059.484320	0.085990	0.579044	10127.444336
7059.485243	0.086023	0.579044	10206.843750
7059.486221	0.085909	0.579044	10290.863281
7059.487140	0.085880	0.579044	10369.787109
7060.487102	1.032393	0.615480	439.799194
7060.488125	1.515908	0.615480	1990.573364
7060.489159	1.495931	0.615480	3537.366455
7060.490056	1.458303	0.615480	4845.464355
7060.491017	1.419932	0.615480	6210.018555
7060.492072	1.378165	0.615480	7663.982910
7060.493003	1.343496	0.615480	8914.777344
7060.493872	0.753772	0.615480	9569.804687
7060.494959	0.088726	0.615480	9666.249023
7060.495950	0.085986	0.615480	9751.461914
7060.496841	0.085887	0.615480	9827.987305
7060.497821	0.086049	0.615480	9912.314453
7060.498863	0.085887	0.615480	10001.809570
7060.499763	0.086045	0.615480	10079.250000
7060.500618	0.085902	0.615480	10152.696289
7060.501680	0.085979	0.615480	10244.005859
7060.502666	0.085942	0.615480	10328.745117
7060.503544	0.085811	0.615480	10404.086914
7061.528606	1.120027	0.583242	570.093628
7061.529535	1.518288	0.583242	1980.583618
7061.530402	1.502600	0.583242	3283.337891
7061.531470	1.458596	0.583242	4841.118652
7061.532486	1.417430	0.583242	6281.228027
7061.533367	1.382728	0.583242	7499.411621
7061.534366	1.346180	0.583242	8844.246094
7061.535426	0.607833	0.583242	9488.549805
7061.536325	0.088586	0.583242	9568.189453
7061.537182	0.086038	0.583242	9641.923828
7061.538253	0.086118	0.583242	9734.156250
7061.539242	0.085957	0.583242	9819.167969
7061.540129	0.086023	0.583242	9895.470703
7061.541103	0.086060	0.583242	9979.292969
7061.542164	0.086122	0.583242	10070.667969
7061.543066	0.085884	0.583242	10148.134766
7061.543928	0.085986	0.583242	10222.254883
7061.545029	0.085994	0.583242	10316.933594
7062.544317	1.027405	0.606872	437.674438
7062.545350	1.515538	0.606872	2003.225586
7062.546253	1.500564	0.606872	3358.234863
7062.547185	1.462174	0.606872	4720.980957
7062.548051	1.425623	0.606872	5955.570312
7062.549102	1.385801	0.606872	7412.046875
7062.549978	1.352410	0.606872	8596.757812
7062.550857	1.054523	0.606872	9523.683594
7062.551855	0.124406	0.606872	9647.839844
7062.552774	0.085869	0.606872	9726.753906
7062.553698	0.086019	0.606872	9806.235352
7062.554559	0.085968	0.606872	9880.253906
7062.555583	0.086034	0.606872	9968.352539
7062.556473	0.085957	0.606872	10044.854492
7062.557347	0.086019	0.606872	10120.035156
7062.558289	0.086133	0.606872	10201.171875
7062.559278	0.086019	0.606872	10286.245117
7062.560191	0.086045	0.606872	10364.803711
7063.585304	1.105356	0.587173	561.521057
7063.586195	1.517479	0.587173	1913.594971
7063.587058	1.502867	0.587173	3210.569336
7063.588171	1.458483	0.587173	4833.860352
7063.589146	1.419210	0.587173	6217.590332
7063.590013	1.384922	0.587173	7418.317383
7063.591068	1.345972	0.587173	8838.317383
7063.592111	0.614088	0.587173	9478.811523
7063.592988	0.089377	0.587173	9557.195312
7063.593901	0.085986	0.587173	9635.701172
7063.594973	0.086049	0.587173	9727.945312
7063.595919	0.086001	0.587173	9809.301758
7063.596777	0.085972	0.587173	9883.065430
7063.597799	0.086074	0.587173	9971.033203
7063.598826	0.085917	0.587173	10059.269531
7063.599714	0.085913	0.587173	10135.560547
7063.600646	0.086034	0.587173	10215.744141
7063.601705	0.086005	0.587173	10306.823242
7064.601101	1.097765	0.603085	552.175720
7064.602110	1.519611	0.603085	2085.462646
7064.603004	1.499128	0.603085	3425.683594
7064.603976	1.459014	0.603085	4843.844727
7064.605031	1.415988	0.603085	6337.711914
7064.605960	1.379583	0.603085	7619.344238
7064.606827	1.346320	0.603085	8786.603516
7064.607908	0.623291	0.603085	9460.380859
7064.608892	0.087744	0.603085	9546.720703
7064.609772	0.085968	0.603085	9622.373047
7064.610768	0.086129	0.603085	9708.157227
7064.611806	0.086034	0.603085	9797.460937
7064.612701	0.085858	0.603085	9874.303711
7064.613558	0.086016	0.603085	9948.019531
7064.614645	0.086089	0.603085	10041.597656
7064.615633	0.085920	0.603085	10126.487305
7064.616509	0.085876	0.603085	10201.714844
7064.617492	0.086063	0.603085	10286.315430
7065.641963	1.076990	0.582726	507.262177
7065.642852	1.514938	0.582726	1854.041870
7065.643731	1.505852	0.582726	3177.686035
7065.644694	1.466294	0.582726	4589.727051
7065.645685	1.426066	0.582726	6002.958008
7065.646607	1.389478	0.582726	7284.056641
7065.647478	1.356248	0.582726	8465.348633
7065.648530	0.976205	0.582726	9492.316406
7065.649404	0.115946	0.582726	9593.653320
7065.650266	0.085844	0.582726	9667.650391
7065.651173	0.085942	0.582726	9745.600586
7065.652201	0.085972	0.582726	9833.979492
7065.653095	0.085953	0.582726	9910.822266
7065.653971	0.085920	0.582726	9986.088867
7065.654977	0.086060	0.582726	10072.665039
7065.655896	0.085972	0.582726	10151.672852
7065.656812	0.085865	0.582726	10230.325195
7065.657676	0.085964	0.582726	10304.598633
7066.657348	1.147709	0.603601	645.012329
7066.658413	1.520197	0.603601	2264.021484
7066.659300	1.494792	0.603601	3589.902344
7066.660191	1.456469	0.603601	4887.615723
7066.661281	1.413691	0.603601	6428.539062
7066.662235	1.376755	0.603601	7741.963867
7066.663096	1.344258	0.603601	8899.370117
7066.664152	0.576442	0.603601	9508.092773
7066.665189	0.086968	0.603601	9598.278320
7066.666060	0.086001	0.603601	9673.185547
7066.666992	0.086038	0.603601	9753.373047
7066.668063	0.086104	0.603601	9845.589844
7066.669000	0.086016	0.603601	9926.186523
7066.669866	0.086008	0.603601	10000.669922
7066.670915	0.086115	0.603601	10091.003906
7066.671924	0.085983	0.603601	10177.760742
7066.672813	0.085972	0.603601	10254.189453
7066.673773	0.085975	0.603601	10336.725586
7067.698204	1.102929	0.575225	562.493530
7067.699097	1.517336	0.575225	1917.474854
7067.699958	1.503069	0.575225	3211.617187
7067.701057	1.459123	0.575225	4815.193848
7067.702021	1.419877	0.575225	6183.955078
7067.702893	1.385471	0.575225	7392.085937
7067.703896	1.347788	0.575225	8743.916992
7067.704962	0.673960	0.575225	9462.358398
7067.705855	0.090157	0.575225	9542.869141
7067.706750	0.085942	0.575225	9619.787109
7067.707841	0.086060	0.575225	9713.677734
7067.708798	0.085891	0.575225	9795.875977
7067.709662	0.085898	0.575225	9870.091797
7067.710683	0.086071	0.575225	9957.969727
7067.711718	0.085939	0.575225	10046.916016
7067.712615	0.085803	0.575225	10123.881836
7067.713546	0.086008	0.575225	10203.955078
7067.714601	0.086060	0.575225	10294.748047
7068.715978	1.042170	0.587125	451.259796
7068.716848	1.511426	0.587125	1766.200195
7068.717847	1.503823	0.587125	3268.519531
7068.718776	1.464353	0.587125	4628.903320
7068.719684	1.427168	0.587125	5924.771973
7068.720564	1.392206	0.587125	7149.913086
7068.721581	1.354362	0.587125	8527.298828
7068.722486	1.075814	0.587125	9500.911133
7068.723365	0.135842	0.587125	9620.316406
7068.724295	0.085796	0.587125	9700.106445
7068.725295	0.085957	0.587125	9786.063477
7068.726211	0.085898	0.587125	9864.746094
7068.727090	0.086016	0.587125	9940.353516
7068.728107	0.086056	0.587125	10027.872070
7068.729013	0.085972	0.587125	10105.762695
7068.729930	0.085953	0.587125	10184.582031
7068.730787	0.086023	0.587125	10258.303711
7068.731803	0.085972	0.587125	10345.651367
7069.754871	1.084537	0.569380	526.000610
7069.755749	1.515066	0.569380	1856.228516
7069.756704	1.502794	0.569380	3291.396973
7069.757772	1.458655	0.569380	4849.240234
7069.758710	1.420426	0.569380	6181.599609
7069.759573	1.385790	0.569380	7377.536133
7069.760609	1.347122	0.569380	8773.154297
7069.761638	0.683079	0.569380	9476.041992
7069.762521	0.091410	0.569380	9556.756836
7069.763491	0.085917	0.569380	9640.095703
7069.764531	0.086085	0.569380	9729.624023
7069.765446	0.086016	0.569380	9808.328125
7069.766312	0.085990	0.569380	9882.795898
7069.767387	0.086104	0.569380	9975.357422
7069.768383	0.085887	0.569380	10060.901367
7069.769277	0.085975	0.569380	10137.763672
7069.770253	0.086144	0.569380	10221.839844
7069.771300	0.086045	0.569380	10311.928711
7070.773250	1.066736	0.585993	530.167725
7070.774318	1.519153	0.585993	2152.623047
7070.775259	1.495052	0.585993	3559.467285
7070.776132	1.457889	0.585993	4832.204590
7070.777182	1.415673	0.585993	6318.661133
7070.778198	1.376213	0.585993	7716.894043
7070.779098	1.342947	0.585993	8925.545898
7070.780078	0.621581	0.585993	9534.695312
7070.781125	0.087217	0.585993	9626.011719
7070.782045	0.085983	0.585993	9705.116211
7070.782906	0.085964	0.585993	9779.131836
7070.784007	0.086074	0.585993	9873.899414
7070.784994	0.085913	0.585993	9958.695312
7070.785888	0.085990	0.585993	10035.570312
7070.786880	0.086067	0.585993	10120.948242
7070.787922	0.086052	0.585993	10210.614258
7070.788815	0.085990	0.585993	10287.403320
7070.789670	0.086008	0.585993	10360.940430
7071.810524	1.056442	0.567914	481.737396
7071.811542	1.519124	0.567914	2028.205200
7071.812429	1.501267	0.567914	3359.829102
7071.813300	1.464752	0.567914	4635.628418
7071.814303	1.424667	0.567914	6064.569336
7071.815213	1.387515	0.567914	7327.207520
7071.816128	1.353527	0.567914	8565.684570
7071.817014	1.040189	0.567914	9487.291992
7071.818055	0.105912	0.567914	9597.545898
7071.818950	0.085836	0.567914	9674.369141
7071.819824	0.086093	0.567914	9749.614258
7071.820787	0.086041	0.567914	9832.471680
7071.821756	0.086027	0.567914	9915.831055
7071.822637	0.086180	0.567914	9991.755859
7071.823564	0.086096	0.567914	10071.567383
7071.824608	0.085942	0.567914	10161.291016
7071.825491	0.086041	0.567914	10237.265625
7071.826349	0.086027	0.567914	10311.076172
7072.830497	1.120448	0.582770	573.669373
7072.831494	1.519977	0.582770	2089.086182
7072.832394	1.498905	0.582770	3438.100586
7072.833405	1.456978	0.582770	4911.104980
7072.834448	1.415061	0.582770	6387.013672
7072.835338	1.379568	0.582770	7614.829102
7072.836228	1.345558	0.582770	8812.375977
7072.837319	0.592551	0.582770	9458.849609
7072.838273	0.087697	0.582770	9542.511719
7072.839133	0.085924	0.582770	9616.406250
7072.840173	0.086107	0.582770	9705.958008
7072.841219	0.085950	0.582770	9795.861328
7072.842098	0.086008	0.582770	9871.462891
7072.843025	0.086016	0.582770	9951.199219
7072.844102	0.086082	0.582770	10043.909180
7072.845028	0.085979	0.582770	10123.525391
7072.845894	0.085986	0.582770	10197.989258
7072.846926	0.086067	0.582770	10286.810547
7073.865657	1.023699	0.559547	433.024536
7073.866664	1.514722	0.559547	1958.349243
7073.867716	1.496389	0.559547	3532.550781
7073.868610	1.458732	0.559547	4836.656738
7073.869522	1.421038	0.559547	6132.643066
7073.870610	1.378872	0.559547	7632.855957
7073.871559	1.343826	0.559547	8908.146484
7073.872431	0.761814	0.559547	9572.448242
7073.873473	0.089996	0.559547	9666.224609
7073.874491	0.086041	0.559547	9753.814453
7073.875381	0.085928	0.559547	9830.290039
7073.876336	0.086027	0.559547	9912.445312
7073.877383	0.086016	0.559547	10002.503906
7073.878313	0.085997	0.559547	10082.481445
7073.879176	0.086089	0.559547	10156.776367
7073.880232	0.086206	0.559547	10247.809570
7073.881243	0.086041	0.559547	10334.796875
7073.882121	0.086078	0.559547	10410.373047
7074.888653	1.040614	0.584635	455.788940
7074.889523	1.511843	0.584635	1771.092529
7074.890495	1.504321	0.584635	3233.292969
7074.891450	1.464229	0.584635	4631.631348
7074.892372	1.426813	0.584635	5947.152832
7074.893255	1.391755	0.584635	7176.072754
7074.894286	1.353516	0.584635	8571.546875
7074.895185	1.049238	0.584635	9514.812500
7074.896068	0.127383	0.584635	9627.291992
7074.896983	0.086045	0.584635	9706.023437
7074.897982	0.086016	0.584635	9791.953125
7074.898903	0.085895	0.584635	9871.062500
7074.899765	0.086005	0.584635	9945.198242
7074.900770	0.086041	0.584635	10031.669922
7074.901665	0.085972	0.584635	10108.614258
7074.902581	0.086005	0.584635	10187.394531
7074.903453	0.086052	0.584635	10262.431641
7074.904477	0.085935	0.584635	10350.428711
